LabVIEW Measurement	
Writer_Version	2
Reader_Version	2
Separator	Tab
Decimal_Separator	.
Multi_Headings	No
X_Columns	One
Time_Pref	Absolute
Operator	stocknot
Date	2022/03/22
Time	13:39:48.8979573249816894531
***End_of_Header***	
	
Notes	X values guaranteed valid only for Extensometer Displacement-mm (Mean)				
Channels	4				
Samples	1	1	1	1	
Date	2022/03/22	2022/03/22	2022/03/22	2022/03/22	
Time	13:39:48.8979573249816894531	13:39:48.8979573249816894531	13:39:48.8979573249816894531	13:39:48.9013128280639648438	
Y_Unit_Label	Volts	Volts	Volts	Volts	
X_Dimension	Time	Time	Time	Time	
X0	0.0000000000000000E+0	0.0000000000000000E+0	0.0000000000000000E+0	9.9000000000000005E-2	
Delta_X	0.100000	0.100000	0.100000	0.100000	
***End_of_Header***					
X_Value	Extensometer Displacement-mm (Mean)	Force-N (Mean)	Global Displacement-mm (Mean)	Global Displacement-mm (Mean) 1	Comment
0.000000	-0.000367	-1.652796	0.008757	5.565726E-5
0.100000	0.005982	-0.877952	0.016954	0.038417
0.200000	0.000913	-0.227835	0.006140	-0.055412
0.300000	-0.002842	1.873349	0.000957	-0.092751
0.400000	0.004679	1.828278	0.022110	-0.014444
0.500000	0.003854	0.986989	0.024971	0.040670
0.600000	0.004823	-0.762835	0.009141	0.030747
0.700000	0.003621	-1.320521	0.008766	-0.054859
0.800000	-0.000183	4.658751	0.043050	0.157164
0.900000	0.005275	6.105322	0.083227	0.289220
1.000000	0.001216	13.091545	0.113980	0.437320
1.100000	0.000677	16.266662	0.168834	0.624134
1.200000	-0.000279	20.702389	0.204069	0.813631
1.300000	-0.003012	22.911125	0.280607	1.157446
1.400000	-0.006618	23.913876	0.305385	1.189508
1.500000	-0.010811	14.783162	0.312809	1.194030
1.600000	-0.007163	17.184053	0.336561	1.359118
1.700000	-0.011321	14.226730	0.307249	1.249046
1.800000	-0.008616	21.629036	0.300262	1.084538
1.900000	-0.005166	25.635364	0.222759	0.600225
2.000000	-0.002204	31.805145	0.201239	0.366934
2.100000	-0.002253	39.290787	0.194402	0.120075
2.200000	-0.011323	46.212711	0.195243	-0.025072
2.300000	-0.008391	53.512313	0.258518	-0.092339
2.400000	-0.002928	60.253707	0.271034	-0.147525
2.500000	-0.004455	67.228547	0.294450	-0.078234
2.600000	-0.018915	74.018523	0.284213	-0.211904
2.700000	-0.014949	78.921330	0.282456	-0.103165
2.800000	0.000445	86.977287	0.279261	-0.100444
2.900000	-0.007657	96.928210	0.289280	0.271328
3.000000	-0.008768	108.285292	0.326520	0.507866
3.100000	-0.003733	116.227442	0.353020	0.660966
3.200000	-0.001944	124.092110	0.363663	0.693817
3.300000	-0.006211	126.923552	0.483409	0.939467
3.400000	-0.006304	135.945078	0.503104	0.967350
3.500000	-0.006516	146.944812	0.532904	0.989080
3.600000	-0.006942	155.061244	0.568989	1.181308
3.700000	-0.006235	168.365197	0.614948	1.380358
3.800000	-0.004444	181.541674	0.651293	1.547981
3.900000	0.010103	194.226810	0.674484	1.603417
4.000000	-0.004491	207.343342	0.719533	1.641040
4.100000	0.000693	218.799196	0.742946	1.618734
4.200000	0.005095	226.035660	0.777333	1.740694
4.300000	0.002016	237.606696	0.784385	1.259054
4.400000	-0.001014	246.893318	0.826530	1.350944
4.500000	-0.002527	256.673425	0.856197	1.349481
4.600000	0.008914	266.049861	0.882864	1.311983
4.700000	0.001850	279.882455	0.920851	1.271316
4.800000	0.004970	296.468578	0.975010	1.355820
4.900000	0.007095	314.143630	1.000155	1.350428
5.000000	0.011141	325.564560	1.040424	1.335876
5.100000	0.013633	339.536132	1.089032	1.447811
5.200000	0.012931	349.264819	1.093599	1.321914
5.300000	0.017540	357.420422	1.110889	1.363505
5.400000	0.011887	368.328535	1.135394	1.289663
5.500000	0.012756	377.658615	1.169581	1.303717
5.600000	0.013013	385.260150	1.202017	1.335520
5.700000	0.016381	394.627562	1.181262	1.092454
5.800000	0.013336	413.886939	1.211404	0.987144
5.900000	0.024508	427.195512	1.217935	0.915896
6.000000	0.015263	445.028863	1.262494	0.931161
6.100000	0.028784	460.483462	1.313993	0.928260
6.200000	0.026393	476.218051	1.354546	1.082600
6.300000	0.030703	488.217345	1.376125	1.106970
6.400000	0.026406	505.075581	1.405634	1.127565
6.500000	0.032382	522.657564	1.429811	1.088965
6.600000	0.032002	536.461016	1.488616	1.185343
6.700000	0.029958	549.847860	1.504791	1.346832
6.800000	0.032589	564.947125	1.566151	1.475784
6.900000	0.041349	584.485869	1.598402	1.578942
7.000000	0.040759	602.911077	1.633241	1.556909
7.100000	0.043140	621.711612	1.667698	1.476971
7.200000	0.047893	638.998844	1.702893	1.451885
7.300000	0.040348	658.814564	1.738496	1.506834
7.400000	0.050709	678.796160	1.799606	1.639627
7.500000	0.048014	696.410155	1.817394	1.625913
7.600000	0.050165	710.353926	1.825199	1.409868
7.700000	0.049750	720.534134	1.860270	1.479643
7.800000	0.052343	734.507316	1.900911	1.399253
7.900000	0.058716	754.764647	1.920522	1.346172
8.000000	0.066747	772.308058	1.985113	1.459192
8.100000	0.066808	789.446025	2.007219	1.417130
8.200000	0.064743	801.183726	2.028313	1.367036
8.300000	0.068101	817.373381	2.049269	1.296666
8.400000	0.075837	828.857457	2.065548	1.117570
8.500000	0.059684	843.438063	2.092551	1.135790
8.600000	0.074323	855.149026	2.110453	1.195993
8.700000	0.073166	863.679793	2.120229	1.089718
8.800000	0.079387	875.024516	2.145260	1.020140
8.900000	0.080284	883.639596	2.158475	0.994871
9.000000	0.080073	892.911089	2.183162	0.836763
9.100000	0.077609	911.720125	2.202568	0.815740
9.200000	0.086265	926.858968	2.253688	0.933579
9.300000	0.087173	935.030038	2.280725	0.964587
9.400000	0.091024	948.962908	2.297486	0.954835
9.500000	0.092636	959.731794	2.355964	1.107051
9.600000	0.112121	969.137590	2.357364	1.021536
9.700000	0.109620	981.646654	2.398004	1.158297
9.800000	0.113535	995.161314	2.419412	1.144133
9.900000	0.120592	1001.624780	2.442973	1.186273
10.000000	0.127028	1007.516159	2.456682	1.138002
10.100000	0.131202	1014.134250	2.488790	1.197790
10.200000	0.150841	1020.640978	2.501760	1.037387
10.300000	0.150837	1029.009253	2.520604	1.006190
10.400000	0.164602	1036.891765	2.560430	1.099352
10.500000	0.177957	1042.895233	2.580879	0.936754
10.600000	0.195630	1050.344959	2.626237	1.116586
10.700000	0.202485	1053.330039	2.645102	1.038406
10.800000	0.224424	1057.009331	2.657400	0.991895
10.900000	0.227620	1062.739879	2.677803	0.978372
11.000000	0.247994	1068.897215	2.708489	1.052002
11.100000	0.251871	1064.245367	2.736799	1.033681
11.200000	0.260951	1049.654170	2.753602	1.046768
11.300000	0.257141	1041.781894	2.782483	1.089744
11.400000	0.261211	1040.948206	2.783528	0.942886
11.500000	0.256175	1038.467866	2.779232	0.830001
11.600000	0.261489	1038.188958	2.785742	0.675817
11.700000	0.255922	1036.851562	2.796117	0.630113
11.800000	0.259643	1036.910172	2.773721	0.481243
11.900000	0.259560	1037.858533	2.799175	0.503799
12.000000	0.257343	1036.029714	2.794453	0.366224
12.100000	0.262243	1035.817165	2.783511	0.202093
12.200000	0.257117	1034.929597	2.795543	0.181383
12.300000	0.256332	1036.892744	2.793558	0.049899
12.400000	0.266366	1034.804369	2.782410	-0.006337
12.500000	0.269120	1033.355391	2.781373	0.008436
12.600000	0.268821	1033.497706	2.794970	0.033273
12.700000	0.270992	1030.437571	2.796827	0.001693
12.800000	0.273881	1032.924805	2.785386	0.051418
12.900000	0.314983	1031.635473	2.795655	-0.009153
13.000000	0.297589	1032.634407	2.787105	-0.029434
13.100000	0.292262	1029.739720	2.799516	0.060801
13.200000	0.297750	1031.319905	2.792967	-0.012230
13.300000	0.286484	1031.023095	2.802950	0.047378
13.400000	0.313784	1029.151143	2.790069	0.025091
13.500000	0.321857	1028.056301	2.799096	0.078731
13.600000	0.297673	1028.242942	2.807484	0.044169
13.700000	0.304353	1030.168542	2.781632	-0.058268
13.800000	0.319730	1029.974810	2.773631	-0.046260
13.900000	0.337080	1030.343250	2.792578	-0.009985
14.000000	0.333217	1028.322812	2.790576	0.011996
14.100000	0.343815	1030.244589	2.794475	-0.021686
14.200000	0.353911	1028.221104	2.803888	0.038856
14.300000	0.320721	1027.574100	2.810249	0.033351
14.400000	0.294806	1027.500068	2.795584	0.023891
14.500000	0.263700	1027.881950	2.796978	-0.010045
14.600000	0.258659	1026.038822	2.798193	-0.031547
14.700000	0.332781	1027.584186	2.794895	0.046325
14.800000	0.399911	1027.256957	2.813637	0.170179
14.900000	0.405593	1027.081508	2.802420	0.044341
15.000000	-0.152634	1027.241869	2.807321	0.062293
15.100000	-0.888344	1026.466027	2.796021	0.010865
15.200000	-1.362881	1026.853321	2.803271	0.005283
15.300000	-1.568211	1025.284774	2.806480	-0.026100
15.400000	-1.764284	1024.885147	2.800885	0.025862
15.500000	-2.217315	1024.508480	2.811132	0.056453
15.600000	-2.457703	1025.033779	2.796694	-0.002542
15.700000	-2.913127	1027.766088	2.816244	0.085300
15.800000	-3.203051	1027.793060	2.807604	-0.024546
15.900000	-3.477241	1025.299741	2.814359	0.050233
16.000000	-3.626532	1028.062853	2.808815	0.004343
16.100000	-3.575978	1026.199608	2.810610	0.061959
16.200000	-3.430011	1026.146812	2.811253	0.031881
16.300000	-3.229254	1024.492562	2.798284	-0.027946
16.400000	-2.942160	1025.676801	2.800582	-0.002540
16.500000	-2.746061	1024.389107	2.793780	-0.068546
16.600000	-2.801024	1025.496606	2.798808	-0.000907
16.700000	-2.912614	1025.544363	2.786691	-0.110914
16.800000	-2.911914	1026.779412	2.791926	-0.071553
16.900000	-3.229096	1025.829830	2.782903	-0.130469
17.000000	-3.699660	1026.173092	2.810107	0.004176
17.100000	-2.970351	1026.879374	2.796004	-0.058863
17.200000	-2.052318	1026.482447	2.799795	-0.046512
17.300000	-0.595252	1026.473620	2.795435	-0.011487
17.400000	-0.442056	1022.657284	2.808093	0.021453
17.500000	0.047347	1025.348607	2.816411	0.091680
17.600000	0.582288	1022.923840	2.786189	-0.039569
17.700000	1.556439	1025.347334	2.800499	0.053107
17.800000	1.586480	1024.110702	2.796735	0.024184
17.900000	1.440161	1024.355541	2.793598	0.038161
18.000000	1.037814	1022.833546	2.792527	-0.062927
18.100000	0.819428	1024.333360	2.799133	0.007920
18.200000	-0.310389	1022.519243	2.795685	-0.021669
18.300000	-0.152918	1025.070044	2.810782	0.060842
18.400000	-0.120374	1023.369186	2.791489	-0.059512
18.500000	-0.222408	1023.225050	2.793466	-0.092861
18.600000	-0.236345	1024.312952	2.809979	0.087682
18.700000	-0.277075	1025.074472	2.782523	-0.075934
18.800000	-0.348271	1025.540208	2.794690	-0.009912
18.900000	-3.232053	1026.508979	2.806669	0.058964
19.000000	-6.721307	1023.786124	2.807916	0.061417
19.100000	-6.800432	1025.154383	2.792998	-0.023141
19.200000	-6.801146	1023.770393	2.820709	0.101232
19.300000	-6.791764	1023.113870	2.789315	-0.083665
19.400000	-6.805167	1025.051309	2.787541	-0.019829
19.500000	-5.074018	1024.591379	2.805633	0.052952
19.600000	-0.094636	1027.407822	2.784933	-0.103025
19.700000	-0.091781	1027.006117	2.802194	0.082503
19.800000	-0.759511	1024.838532	2.802599	0.030456
19.900000	-0.335538	1029.117985	2.811287	0.015751
20.000000	-0.033533	1038.421096	2.781583	-0.106737
20.100000	0.402421	1045.446456	2.810149	0.072579
20.200000	0.316576	1054.957124	2.797423	-0.093503
20.300000	0.265915	1074.391702	2.802807	0.052543
20.400000	0.232081	1086.486782	2.806923	0.076097
20.500000	0.209835	1082.705902	2.813645	0.031402
20.600000	-0.016963	1083.220319	2.847061	0.251900
20.700000	-0.022088	1083.965943	2.897235	0.396246
20.800000	-0.132522	1087.852609	2.923262	0.495578
20.900000	-0.324403	1091.009688	2.945594	0.565544
21.000000	-0.705509	1095.851353	2.985445	0.841091
21.100000	-0.640488	1098.992179	3.042982	0.955000
21.200000	-0.697882	1100.459893	3.088874	1.221546
21.300000	-0.144044	1098.530178	3.100252	1.231796
21.400000	0.017419	1104.846262	3.133232	1.357800
21.500000	0.400679	1106.396576	3.174687	1.498500
21.600000	1.018279	1108.234779	3.206234	1.505687
21.700000	1.364375	1106.122760	3.236041	1.406690
21.800000	1.040258	1111.633257	3.283646	1.503162
21.900000	1.013487	1117.508243	3.307313	1.506070
22.000000	0.797815	1118.826245	3.357262	1.553057
22.100000	0.523174	1123.304281	3.399767	1.498081
22.200000	0.261446	1120.349848	3.426643	1.402850
22.300000	0.730394	1119.938550	3.452312	1.466393
22.400000	1.461328	1126.487735	3.492851	1.503908
22.500000	1.623806	1127.803281	3.533723	1.500514
22.600000	2.101166	1129.041685	3.587425	1.575509
22.700000	2.164818	1130.686047	3.628856	1.645733
22.800000	2.085447	1134.647368	3.674077	1.631747
22.900000	1.794129	1134.775172	3.725107	1.741457
23.000000	1.111082	1138.368596	3.773944	1.740623
23.100000	-0.036340	1138.015918	3.803466	1.679344
23.200000	-0.781464	1140.206706	3.828297	1.669433
23.300000	-1.166533	1141.969983	3.869907	1.750367
23.400000	-0.562878	1146.992364	3.928235	1.811340
23.500000	-0.167406	1145.463560	3.950496	1.735183
23.600000	-0.253192	1151.278772	4.002282	1.741451
23.700000	1.043116	1153.231633	4.041601	1.718922
23.800000	1.344647	1151.886198	4.100227	1.768835
23.900000	0.983619	1156.091484	4.146265	1.762260
24.000000	1.217722	1157.104904	4.163595	1.623207
24.100000	1.402170	1159.714409	4.207050	1.682648
24.200000	1.664464	1162.024781	4.257151	1.795947
24.300000	1.699850	1162.272452	4.293433	1.764332
24.400000	-0.220065	1164.108998	4.338598	1.704667
24.500000	-0.162611	1166.034075	4.403635	1.893164
24.600000	-0.151351	1166.217753	4.434250	1.804377
24.700000	0.054485	1170.618476	4.492203	1.876231
24.800000	0.077698	1171.082257	4.552603	1.892557
24.900000	0.070240	1175.401179	4.592084	1.856398
25.000000	-0.142607	1172.911440	4.633872	1.958025
25.100000	-0.039993	1175.129148	4.692433	2.026940
25.200000	0.134301	1180.081022	4.736919	1.994026
25.300000	0.076843	1178.920987	4.798844	2.108960
25.400000	0.069455	1180.076250	4.829231	2.051219
25.500000	0.091380	1183.870589	4.886381	2.011454
25.600000	0.123680	1183.344284	4.931056	2.069847
25.700000	0.111184	1182.387190	4.954458	1.941562
25.800000	0.132376	1182.934042	4.967957	1.729641
25.900000	0.120013	1190.210111	5.022062	1.789248
26.000000	0.132288	1189.119184	5.082823	1.878020
26.100000	0.127046	1190.313964	5.111664	1.748727
26.200000	0.131393	1187.557609	5.159516	1.765436
26.300000	0.104536	1192.859068	5.188547	1.622711
26.400000	0.057008	1195.552206	5.233916	1.694234
26.500000	-0.102628	1194.546521	5.287592	1.674758
26.600000	-0.178858	1194.804619	5.358049	1.783297
26.700000	-0.206601	1195.978823	5.402348	1.854642
26.800000	-0.220669	1196.837319	5.454122	2.026601
26.900000	-0.337009	1196.669887	5.518903	2.070358
27.000000	-0.185665	1199.473731	5.560367	1.996546
27.100000	-0.094400	1197.638725	5.599356	2.034909
27.200000	-0.060749	1197.571130	5.643718	2.017287
27.300000	-0.070850	1200.190121	5.729606	2.250364
27.400000	-0.101282	1199.320776	5.777199	2.270315
27.500000	-0.088340	1200.057039	5.804848	2.156147
27.600000	-0.054750	1201.204114	5.883506	2.189595
27.700000	-0.031288	1204.794841	5.891273	2.051618
27.800000	-0.034441	1203.412824	5.940213	2.022706
27.900000	-0.028615	1201.575165	5.989380	1.972008
28.000000	-0.012375	1203.841678	6.016311	1.900607
28.100000	-0.016009	1201.641302	6.079945	1.999756
28.200000	-0.005121	1200.474711	6.121621	1.996914
28.300000	0.006986	1197.242714	6.129162	1.683003
28.400000	0.008082	1200.567564	6.155449	1.569572
28.500000	0.007680	1205.135662	6.174124	1.548379
28.600000	0.015505	1204.381832	6.223529	1.418755
28.700000	0.018678	1206.659102	6.270619	1.572450
28.800000	0.034928	1201.660662	6.336022	1.661999
28.900000	0.021923	1205.648758	6.375910	1.612603
29.000000	0.004557	1200.763264	6.392411	1.563758
29.100000	0.010381	1201.044979	6.456062	1.571890
29.200000	0.021508	1201.177906	6.486571	1.527270
29.300000	0.015749	1202.347904	6.521812	1.620624
29.400000	0.014108	1199.825943	6.570568	1.731775
29.500000	0.011517	1195.603631	6.607022	1.805849
29.600000	0.020544	1189.232695	6.644607	1.762594
29.700000	0.011006	1181.546398	6.721963	1.875836
29.800000	0.006616	1167.776765	6.773405	1.828116
29.900000	0.001316	1149.296589	6.810572	1.806828
30.000000	0.005518	1115.339048	6.868304	1.984564
30.100000	0.013031	98.184464	6.917265	1.915636
30.200000	0.019573	4.840253	6.934873	1.886963
30.300000	0.015893	1.311910	6.917043	1.656131
30.400000	0.022684	1.906046	6.912662	1.437650
30.500000	0.023415	-1.129520	6.890367	1.183862
30.600000	0.025690	0.423868	6.924189	1.169759
30.700000	0.037715	0.195932	6.923681	0.854168
30.800000	0.039743	-0.009595	6.933708	0.676617
30.900000	0.042592	1.198581	6.927732	0.495474
31.000000	0.041742	0.979961	6.930569	0.271269
31.100000	0.035659	-0.786114	6.938099	0.102497
31.200000	0.044930	0.806923	6.930964	-0.034137
31.300000	0.052336	-0.856149	6.931475	0.063864
