LabVIEW Measurement	
Writer_Version	2
Reader_Version	2
Separator	Tab
Decimal_Separator	.
Multi_Headings	No
X_Columns	One
Time_Pref	Absolute
Operator	theoar
Date	2022/03/22
Time	14:04:16.4623365402221679688
***End_of_Header***	
	
Notes	X values guaranteed valid only for Extensometer Displacement-mm (Mean)				
Channels	4				
Samples	1	1	1	1	
Date	2022/03/22	2022/03/22	2022/03/22	2022/03/22	
Time	14:04:16.4623365402221679688	14:04:16.4623365402221679688	14:04:16.4623365402221679688	14:04:16.4671225547790527344	
Y_Unit_Label	Volts	Volts	Volts	Volts	
X_Dimension	Time	Time	Time	Time	
X0	0.0000000000000000E+0	0.0000000000000000E+0	0.0000000000000000E+0	9.9000000000000005E-2	
Delta_X	0.100000	0.100000	0.100000	0.100000	
***End_of_Header***					
X_Value	Extensometer Displacement-mm (Mean)	Force-N (Mean)	Global Displacement-mm (Mean)	Global Displacement-mm (Mean) 1	Comment
0.000000	0.004818	-1.129068	-0.004922	-0.019509
0.100000	-0.003156	-0.164367	-0.003968	-0.045154
0.200000	-0.002130	0.323459	-0.013998	-0.031202
0.300000	-0.000213	1.688146	-0.002276	0.021366
0.400000	0.000395	-1.616012	-0.001132	-0.021564
0.500000	0.002418	1.327994	0.004948	0.056542
0.600000	0.005213	0.765973	-0.015249	-0.054904
0.700000	-0.004524	-0.287193	-0.010910	-0.006407
0.800000	-0.001127	-0.494136	-0.012672	-0.018916
0.900000	0.004282	-0.952174	-0.005042	0.003804
1.000000	0.001487	1.824677	-0.033682	-0.087040
1.100000	-0.000210	-0.221878	0.002423	0.015109
1.200000	0.003207	-0.700643	-0.009175	0.019232
1.300000	0.013619	0.223615	-0.008133	-0.023545
1.400000	-0.004342	-1.270134	-0.020723	-0.053533
1.500000	-0.002275	0.342656	-0.011354	-0.043433
1.600000	0.001228	-0.065931	-0.002714	0.028612
1.700000	-0.002892	-1.500582	0.006150	0.053038
1.800000	0.004797	0.176124	0.003783	0.049998
1.900000	0.005801	-0.037935	-0.003805	0.004623
2.000000	-0.000482	-0.652324	-0.002713	0.094221
2.100000	0.001997	-0.301016	0.037841	0.105413
2.200000	0.003307	1.553445	0.045977	0.159169
2.300000	0.008493	7.558854	0.020659	0.095414
2.400000	0.004448	11.756785	-0.007287	0.042192
2.500000	0.005975	20.790133	-0.051542	-0.119844
2.600000	0.008886	13.128897	-0.080029	-0.225829
2.700000	0.003198	10.030822	-0.074667	-0.245735
2.800000	0.000720	13.302380	-0.067785	-0.215840
2.900000	-0.001415	20.968370	-0.055630	-0.164238
3.000000	0.001608	30.717637	-0.033745	-0.090769
3.100000	0.004378	41.333873	-0.036083	-0.219199
3.200000	0.008045	53.094137	-0.091940	-0.405732
3.300000	0.002295	62.753004	-0.163923	-0.558305
3.400000	0.000246	75.586644	-0.279212	-0.810230
3.500000	0.004685	85.563372	-0.437712	-1.159957
3.600000	0.001881	97.318636	-0.527525	-1.349782
3.700000	0.004848	115.340230	-0.633945	-1.673240
3.800000	0.016493	132.552200	-0.739082	-2.018960
3.900000	0.020367	148.530948	-0.849489	-2.384532
4.000000	0.013753	164.856851	-0.914900	-2.656120
4.100000	0.015216	183.336437	-0.990136	-2.873067
4.200000	0.018744	203.175235	-1.066673	-2.952435
4.300000	0.025869	218.363319	-1.127152	-2.914458
4.400000	0.033284	236.801301	-1.156508	-2.663781
4.500000	0.051383	245.935064	-1.186879	-2.278795
4.600000	0.057650	256.809798	-1.203308	-2.047199
4.700000	0.084823	268.438899	-1.251445	-1.880047
4.800000	0.104155	277.270111	-1.303749	-1.710679
4.900000	0.143528	283.901469	-1.351869	-1.521280
5.000000	0.165444	291.150895	-1.406526	-1.490737
5.100000	0.193232	298.588036	-1.453482	-1.403606
5.200000	0.225551	305.830796	-1.503912	-1.324546
5.300000	0.251267	308.825516	-1.576747	-1.357169
5.400000	0.281908	315.980019	-1.600668	-1.341253
5.500000	0.311773	321.321286	-1.683391	-1.496840
5.600000	0.343075	327.796555	-1.732498	-1.596718
5.700000	0.361549	332.041876	-1.787750	-1.622588
5.800000	0.393083	339.265713	-1.815677	-1.546869
5.900000	0.430842	341.878445	-1.862584	-1.549299
6.000000	0.451375	346.318107	-1.921484	-1.554054
6.100000	0.470808	353.282230	-1.983674	-1.606388
6.200000	0.500469	357.015519	-2.009677	-1.528411
6.300000	0.531857	359.712672	-2.067058	-1.483711
6.400000	0.552764	365.759863	-2.134259	-1.612927
6.500000	0.581320	369.556580	-2.191869	-1.536372
6.600000	0.617286	372.651598	-2.228349	-1.504156
6.700000	0.637043	377.469391	-2.291223	-1.512218
6.800000	0.671035	380.710087	-2.348905	-1.624804
6.900000	0.698022	385.831782	-2.395770	-1.608683
7.000000	0.721512	389.321079	-2.424855	-1.525137
7.100000	0.743054	394.415851	-2.468697	-1.465586
7.200000	0.773283	395.227692	-2.536058	-1.588544
7.300000	0.796019	400.888914	-2.596012	-1.598554
7.400000	0.822502	403.668221	-2.643618	-1.545135
7.500000	0.851271	407.353018	-2.689903	-1.504661
7.600000	0.872807	411.914481	-2.744830	-1.557121
7.700000	0.909813	415.324155	-2.792011	-1.521082
7.800000	0.931358	420.438841	-2.813559	-1.398810
7.900000	0.951754	420.582745	-2.849998	-1.374581
8.000000	0.969472	424.556870	-2.903070	-1.447266
8.100000	0.989829	429.400295	-2.944191	-1.435928
8.200000	1.020189	432.249940	-2.977143	-1.337211
8.300000	1.041287	436.468705	-3.015676	-1.273608
8.400000	1.077168	439.989717	-3.053718	-1.243880
8.500000	1.105804	441.466412	-3.083723	-1.195280
8.600000	1.125367	444.900256	-3.108065	-1.099081
8.700000	1.159095	448.332530	-3.160978	-1.114717
8.800000	1.182496	451.796149	-3.213134	-1.206498
8.900000	1.209310	456.744811	-3.275142	-1.287016
9.000000	1.231720	460.680072	-3.318021	-1.248143
9.100000	1.264992	466.401297	-3.373680	-1.302203
9.200000	1.291125	467.430754	-3.428440	-1.360308
9.300000	1.314257	466.614332	-3.468437	-1.368602
9.400000	1.325777	461.665194	-3.514072	-1.389935
9.500000	1.322915	453.849836	-3.523412	-1.330686
9.600000	1.314957	450.865411	-3.552992	-1.349125
9.700000	1.324330	449.772482	-3.532603	-1.133279
9.800000	1.330407	447.551236	-3.526217	-0.949673
9.900000	1.322735	446.420361	-3.532819	-0.782934
10.000000	1.318471	446.414154	-3.527345	-0.641607
10.100000	1.326809	444.066868	-3.546942	-0.527460
10.200000	1.281313	446.494265	-3.557415	-0.398051
10.300000	1.266197	443.316849	-3.529649	-0.191318
10.400000	1.270325	442.508980	-3.542575	-0.085490
10.500000	1.272864	438.722100	-3.553240	-0.090224
10.600000	1.287477	438.412823	-3.543664	0.023371
10.700000	1.292819	438.144478	-3.546668	-0.040111
10.800000	1.285307	439.584180	-3.540008	-0.040171
10.900000	1.279647	436.926057	-3.545128	-0.035623
11.000000	1.287119	436.928909	-3.547577	-0.061791
11.100000	1.284473	435.559325	-3.561124	-0.046663
11.200000	1.283792	435.197198	-3.537419	0.063144
11.300000	1.263625	435.730567	-3.535001	-0.021359
11.400000	1.237411	438.322434	-3.541914	0.004802
11.500000	1.228580	434.190834	-3.538914	0.037854
11.600000	0.827241	433.859855	-3.561172	-0.046478
11.700000	0.675913	433.188261	-3.553147	-0.020426
11.800000	0.456816	429.563935	-3.564237	-0.070619
11.900000	0.141768	429.839600	-3.549007	-0.016243
12.000000	-0.033556	428.755111	-3.554432	-0.020227
12.100000	-0.090766	428.443160	-3.557156	0.011174
12.200000	-0.052569	428.112284	-3.543144	-0.020673
12.300000	0.069541	427.705602	-3.535879	0.006952
12.400000	0.147287	431.199061	-3.553332	-0.039509
12.500000	0.242766	428.424843	-3.549553	-0.029861
12.600000	0.433910	430.204832	-3.548999	0.033531
12.700000	0.549211	429.006178	-3.539293	0.041329
12.800000	0.834935	427.489032	-3.545825	0.056513
12.900000	0.798137	431.496146	-3.552917	-0.007470
13.000000	1.033905	428.485940	-3.549898	0.011223
13.100000	1.119242	427.595720	-3.553293	0.013563
13.200000	0.688036	427.159240	-3.550462	-0.016488
13.300000	1.130320	428.393356	-3.566462	-0.099630
13.400000	1.683211	426.902339	-3.546351	0.018242
13.500000	1.872131	426.657950	-3.553551	-0.006765
13.600000	1.302810	428.876367	-3.550875	-0.003588
13.700000	0.056072	425.835928	-3.558819	-0.057295
13.800000	0.354795	426.410761	-3.542383	0.002726
13.900000	0.682818	426.696423	-3.545890	0.019759
14.000000	0.600583	427.884061	-3.566054	-0.050915
14.100000	0.583684	426.097174	-3.542333	0.038204
14.200000	0.511951	428.404121	-3.553395	-0.010138
14.300000	0.498777	427.914184	-3.555874	0.032373
14.400000	0.497334	428.779230	-3.550755	-0.010258
14.500000	0.511890	427.368790	-3.573436	-0.062097
14.600000	0.515236	427.141494	-3.537769	0.029833
14.700000	0.558171	428.672387	-3.544150	0.050114
14.800000	0.356198	427.460538	-3.548222	-0.018179
14.900000	0.299887	426.252735	-3.543740	0.007678
15.000000	0.770223	427.485276	-3.566935	0.002283
15.100000	1.124026	427.633608	-3.548025	-0.022302
15.200000	1.118851	425.115224	-3.556258	-0.007516
15.300000	0.964135	425.857051	-3.565101	-0.033259
15.400000	0.815200	424.979160	-3.542191	0.032323
15.500000	0.463090	426.357014	-3.555358	0.050979
15.600000	0.086335	426.959328	-3.550690	-0.033810
15.700000	0.512190	425.463546	-3.560159	-0.044829
15.800000	0.014731	428.954354	-3.549782	-0.007788
15.900000	-0.389390	426.578563	-3.554766	-0.034174
16.000000	-0.217846	428.716125	-3.540875	0.076568
16.100000	0.051874	427.465821	-3.552118	-0.013092
16.200000	0.127506	428.131299	-3.559643	-0.009418
16.300000	0.131210	425.355238	-3.546253	0.060291
16.400000	0.107874	426.552461	-3.546387	-0.016119
16.500000	0.118360	427.420471	-3.552040	0.010239
16.600000	0.124500	426.454060	-3.544053	0.021608
16.700000	0.134790	424.618443	-3.550102	0.028573
16.800000	0.141777	423.247946	-3.558865	-0.025553
16.900000	0.148951	425.758176	-3.562863	-0.025627
17.000000	0.143826	426.168485	-3.558816	-0.052519
17.100000	0.146912	425.194253	-3.540742	0.038666
17.200000	0.143023	426.440941	-3.559542	-0.003389
17.300000	0.130547	424.245409	-3.557334	-0.032633
17.400000	0.122897	424.410020	-3.544846	-0.000380
17.500000	0.104170	424.783420	-3.548521	0.014788
17.600000	0.109995	426.105376	-3.546320	-0.011407
17.700000	0.109356	426.096426	-3.557744	-0.023703
17.800000	0.111735	426.938488	-3.542739	0.051287
17.900000	0.109744	426.595177	-3.558024	0.012937
18.000000	0.105301	427.110360	-3.539654	0.061372
18.100000	0.104397	449.949257	-3.556080	-0.049777
18.200000	0.111590	474.648066	-3.601815	-0.118148
18.300000	0.104699	477.717141	-3.674671	-0.348623
18.400000	0.109456	484.031855	-3.745257	-0.596457
18.500000	0.107506	490.538055	-3.810716	-0.789144
18.600000	0.110052	492.934947	-3.867764	-0.960034
18.700000	0.114535	497.756660	-3.927991	-1.116100
18.800000	0.109317	503.595089	-4.028579	-1.457991
18.900000	0.114397	508.153675	-4.086294	-1.592277
19.000000	0.108378	512.589243	-4.139016	-1.805422
19.100000	0.118957	517.831254	-4.211101	-1.969909
19.200000	0.102196	523.344369	-4.294289	-2.098962
19.300000	0.119736	526.068643	-4.376430	-2.115558
19.400000	0.113098	529.549692	-4.435057	-2.088188
19.500000	0.104353	534.599492	-4.507456	-2.107571
19.600000	0.107368	538.377766	-4.597142	-2.199536
19.700000	0.106883	540.471786	-4.687586	-2.289844
19.800000	0.108698	548.490366	-4.751266	-2.197399
19.900000	0.107606	551.343157	-4.804063	-2.165825
20.000000	0.113980	555.396099	-4.865812	-2.196328
20.100000	0.105404	560.855971	-4.939346	-2.206363
20.200000	0.105651	565.799432	-5.023279	-2.200775
20.300000	0.113667	565.751827	-5.092251	-2.167120
20.400000	0.107468	572.222539	-5.164392	-2.202121
20.500000	0.105614	577.671881	-5.251097	-2.247877
20.600000	0.107615	580.492933	-5.289338	-2.102889
20.700000	0.108656	586.767533	-5.382359	-2.099860
20.800000	0.112220	588.570892	-5.442851	-2.089837
20.900000	0.110865	592.281528	-5.509220	-2.129091
21.000000	0.106866	594.144380	-5.570026	-2.132965
21.100000	0.103607	599.869893	-5.622589	-2.072716
21.200000	0.108278	606.156386	-5.706386	-2.062316
21.300000	0.113010	607.855374	-5.763243	-2.028399
21.400000	0.112255	609.499362	-5.807730	-1.952420
21.500000	0.114673	613.972640	-5.854987	-1.827182
21.600000	0.114126	620.470417	-5.922426	-1.914161
21.700000	0.111003	625.761272	-5.976900	-1.800125
21.800000	0.102571	627.540366	-6.064200	-1.876215
21.900000	0.112266	630.291602	-6.107600	-1.811189
22.000000	0.110831	633.058480	-6.150601	-1.756662
22.100000	0.109101	638.530641	-6.225197	-1.814308
22.200000	0.110524	640.364321	-6.296882	-1.792312
22.300000	0.109041	644.805736	-6.367048	-1.823415
22.400000	0.112194	647.856896	-6.453265	-1.950026
22.500000	0.111740	650.472915	-6.499704	-1.947930
22.600000	0.111304	655.203272	-6.553994	-1.906710
22.700000	0.114977	659.170268	-6.641852	-2.013989
22.800000	0.112622	663.517451	-6.710437	-1.951085
22.900000	0.115571	666.213134	-6.782035	-2.035315
23.000000	0.105437	670.449499	-6.842137	-2.090140
23.100000	0.104131	672.931912	-6.904637	-2.054044
23.200000	0.104500	677.449783	-6.986966	-2.087827
23.300000	0.108555	681.491612	-7.036876	-2.031664
23.400000	0.108829	684.125883	-7.114575	-1.993481
23.500000	0.112274	687.827401	-7.186686	-2.080719
23.600000	0.102388	690.085611	-7.260165	-2.134255
23.700000	0.113054	696.378681	-7.304875	-2.008295
23.800000	0.109002	700.355195	-7.385942	-2.041623
23.900000	0.110221	701.004063	-7.460854	-2.053183
24.000000	0.109996	706.480895	-7.533100	-2.088856
24.100000	0.111383	709.255474	-7.580872	-2.051728
24.200000	0.112112	710.719706	-7.655052	-2.010654
24.300000	0.105406	717.257779	-7.720258	-2.068223
24.400000	0.109172	721.917607	-7.793002	-2.052685
24.500000	0.108135	722.068142	-7.869942	-2.063813
24.600000	0.112628	726.712704	-7.909483	-1.971403
24.700000	0.113035	732.840472	-7.949740	-1.941727
24.800000	0.116796	734.515568	-8.022212	-1.927749
24.900000	0.111012	738.962483	-8.084060	-1.891252
25.000000	0.115387	741.104709	-8.152233	-1.869742
25.100000	0.112816	745.149191	-8.219406	-1.928975
25.200000	0.107870	747.055226	-8.269831	-1.863778
25.300000	0.099064	750.597590	-8.354613	-1.912076
25.400000	0.109607	753.212115	-8.429309	-1.924732
25.500000	0.107139	758.661661	-8.510019	-1.936931
25.600000	0.114665	762.872343	-8.558819	-1.958148
25.700000	0.115865	767.649745	-8.638574	-2.080981
25.800000	0.110447	771.303266	-8.715058	-2.096836
25.900000	0.106677	773.807610	-8.804584	-2.174357
26.000000	0.110078	776.969821	-8.882247	-2.207866
26.100000	0.114774	780.248352	-8.933551	-2.157492
26.200000	0.107680	786.504755	-9.024374	-2.278173
26.300000	0.113342	788.838749	-9.100594	-2.261297
26.400000	0.113190	793.182122	-9.197381	-2.320342
26.500000	0.107127	793.666846	-9.271120	-2.300353
26.600000	0.111114	799.242380	-9.347987	-2.377746
26.700000	0.101876	801.838294	-9.442517	-2.435658
26.800000	0.114648	806.448099	-9.514567	-2.419036
26.900000	0.115892	811.482142	-9.578672	-2.338556
27.000000	0.106505	812.435294	-9.658678	-2.344204
27.100000	0.107016	817.386761	-9.714735	-2.367877
27.200000	0.110025	820.927316	-9.782206	-2.294356
27.300000	0.116642	824.372069	-9.840672	-2.232912
27.400000	0.118562	827.699702	-9.941319	-2.258348
27.500000	0.102209	831.569652	-10.005436	-2.212810
27.600000	0.108524	834.701742	-10.071782	-2.199318
27.700000	0.109757	837.984579	-10.134452	-2.098539
27.800000	0.117945	843.820015	-10.183457	-2.012512
27.900000	0.105465	842.996476	-10.264022	-2.078721
28.000000	0.105224	846.708980	-10.319495	-2.001422
28.100000	0.109772	850.969912	-10.395830	-2.051952
28.200000	0.104243	853.422452	-10.465432	-2.066268
28.300000	0.106068	858.222324	-10.535047	-2.103736
28.400000	0.104113	861.739958	-10.609843	-2.017494
28.500000	0.113707	865.460856	-10.670798	-2.018553
28.600000	0.103943	867.553822	-10.712596	-1.934918
28.700000	0.102402	869.802533	-10.792744	-1.982027
28.800000	0.115427	873.327947	-10.891516	-2.147228
28.900000	0.115554	875.370625	-10.946905	-2.067577
29.000000	0.109905	880.795653	-10.988121	-2.018558
29.100000	0.096000	885.663556	-11.060413	-2.009977
29.200000	0.108293	887.111323	-11.140581	-2.047567
29.300000	0.114067	889.185595	-11.220598	-2.069120
29.400000	0.114363	891.466912	-11.301287	-2.087106
29.500000	0.108897	896.242260	-11.377339	-2.137840
29.600000	0.108311	898.778297	-11.433020	-2.171640
29.700000	0.113992	902.024229	-11.549843	-2.297353
29.800000	0.106780	904.216974	-11.637282	-2.250391
29.900000	0.111908	905.150656	-11.697242	-2.264000
30.000000	0.107610	910.923577	-11.770239	-2.363218
30.100000	0.106400	913.152407	-11.848625	-2.386884
30.200000	0.109040	915.644356	-11.940741	-2.413046
30.300000	0.113978	919.024236	-12.019562	-2.416826
30.400000	0.106693	922.101004	-12.087451	-2.382557
30.500000	0.113732	924.456260	-12.145989	-2.321639
30.600000	0.111775	927.125926	-12.235245	-2.430178
30.700000	0.110002	931.236525	-12.311569	-2.303729
30.800000	0.102723	930.904930	-12.354961	-2.169911
30.900000	0.107636	935.775972	-12.437164	-2.239026
31.000000	0.114523	938.618405	-12.502146	-2.211559
31.100000	0.105797	942.125543	-12.590843	-2.246264
31.200000	0.102922	943.795149	-12.639024	-2.115812
31.300000	0.116676	948.218895	-12.698024	-2.053393
31.400000	0.112984	948.809758	-12.760668	-2.034840
31.500000	0.105217	950.286805	-12.825950	-2.058060
31.600000	0.111995	956.270794	-12.903943	-2.021208
31.700000	0.110577	958.053371	-12.977646	-2.012461
31.800000	0.107007	961.367260	-13.029001	-2.044062
31.900000	0.114923	963.879958	-13.103748	-2.014764
32.000000	0.103725	965.687260	-13.156225	-1.981893
32.100000	0.107484	969.163225	-13.239996	-1.959452
32.200000	0.110967	970.985897	-13.283379	-1.949083
32.300000	0.107563	974.838832	-13.347544	-1.963258
32.400000	0.109369	978.071307	-13.411881	-1.967932
32.500000	0.114274	981.772184	-13.490907	-2.010138
32.600000	0.114289	984.539782	-13.557736	-1.978413
32.700000	0.109930	986.800150	-13.649994	-2.032844
32.800000	0.107629	988.890809	-13.713794	-2.068900
32.900000	0.105973	992.344332	-13.773049	-2.017840
33.000000	0.116614	995.684697	-13.844835	-2.088843
33.100000	0.107148	997.506560	-13.916284	-2.044675
33.200000	0.112511	999.582463	-13.974886	-2.086114
33.300000	0.109806	1002.918374	-14.026073	-2.052964
33.400000	0.109996	1005.410612	-14.114098	-2.121578
33.500000	0.110889	1008.131908	-14.191260	-2.114928
33.600000	0.107456	1011.546730	-14.279120	-2.177879
33.700000	0.109668	1012.443477	-14.328738	-2.062495
33.800000	0.104492	1014.604225	-14.410947	-2.100186
33.900000	0.103580	1017.501910	-14.482071	-2.152706
34.000000	0.120664	1017.990152	-14.571092	-2.185847
34.100000	0.111622	1022.699225	-14.646536	-2.213271
34.200000	0.115410	1024.622084	-14.709860	-2.219923
34.300000	0.112702	1026.737825	-14.764761	-2.232892
34.400000	0.098620	1030.650319	-14.839098	-2.196873
34.500000	0.120698	1034.185150	-14.909677	-2.174996
34.600000	0.108880	1033.645695	-14.963084	-2.073961
34.700000	0.110415	1038.293075	-15.034074	-2.120597
34.800000	0.115707	1038.605079	-15.056514	-1.966183
34.900000	0.113525	1042.976065	-15.141810	-1.989887
35.000000	0.108346	1043.787666	-15.230699	-1.996464
35.100000	0.113584	1047.150957	-15.311337	-2.008002
35.200000	0.109055	1049.046209	-15.381600	-2.033865
35.300000	0.109835	1051.881303	-15.440571	-2.040850
35.400000	0.108428	1053.686705	-15.496546	-1.991358
35.500000	0.112817	1054.324954	-15.569047	-1.993794
35.600000	0.113108	1054.310013	-15.643097	-2.053899
35.700000	0.117786	1061.938003	-15.682899	-1.966252
35.800000	0.112421	1062.593498	-15.748761	-2.082409
35.900000	0.116005	1064.771012	-15.827066	-2.074630
36.000000	0.109309	1069.469345	-15.883918	-1.981530
36.100000	0.110883	1070.931424	-15.941451	-1.904490
36.200000	0.109908	1072.183931	-16.008226	-1.894827
36.300000	0.113410	1076.820620	-16.084486	-1.945916
36.400000	0.110017	1076.594485	-16.148562	-1.971681
36.500000	0.113047	1078.299461	-16.197187	-1.898223
36.600000	0.113332	1081.627144	-16.293619	-1.967120
36.700000	0.107571	1081.918579	-16.369027	-2.072909
36.800000	0.110028	1086.236043	-16.421825	-2.038422
36.900000	0.110886	1087.788300	-16.491222	-2.006531
37.000000	0.110286	1091.566912	-16.580468	-2.099016
37.100000	0.118524	1091.975682	-16.620027	-2.061016
37.200000	0.105553	1095.381063	-16.674173	-2.014396
37.300000	0.102264	1098.736298	-16.769758	-2.068880
37.400000	0.113421	1099.433277	-16.849871	-2.114217
37.500000	0.110976	1102.262356	-16.930237	-2.219505
37.600000	0.111480	1104.069343	-16.997390	-2.129324
37.700000	0.107712	1106.159228	-17.073937	-2.136537
37.800000	0.109858	1107.980687	-17.129827	-2.129940
37.900000	0.109717	1110.925903	-17.205141	-2.162605
38.000000	0.107140	1113.055221	-17.296997	-2.170817
38.100000	0.104337	1112.457044	-17.374923	-2.275368
38.200000	0.114445	1113.327683	-17.425642	-2.274162
38.300000	0.117976	1115.658045	-17.491475	-2.181821
38.400000	0.112610	1118.205750	-17.554596	-2.135969
38.500000	0.109326	1121.556505	-17.636588	-2.137200
38.600000	0.117675	1120.468910	-17.688326	-2.090810
38.700000	0.114798	1124.487530	-17.761607	-2.070163
38.800000	0.103384	1126.879139	-17.822911	-2.104928
38.900000	0.105511	1127.781627	-17.910902	-2.133432
39.000000	0.110809	1130.990699	-17.956208	-1.995837
39.100000	0.107641	1131.976747	-18.067568	-2.089790
39.200000	0.105020	1133.476913	-18.124551	-2.114882
39.300000	0.114958	1135.898723	-18.172097	-2.061147
39.400000	0.098688	1137.583733	-18.236011	-2.059673
39.500000	0.111395	1139.225622	-18.315663	-2.051681
39.600000	0.111382	1140.596173	-18.392168	-2.126516
39.700000	0.113097	1142.166134	-18.442926	-2.067222
39.800000	0.115395	1144.941005	-18.487762	-2.010252
39.900000	0.118100	1145.464997	-18.537703	-1.895178
40.000000	0.116230	1146.241662	-18.611006	-1.979198
40.100000	0.118119	1148.993706	-18.684076	-1.870900
40.200000	0.106660	1152.717021	-18.742563	-1.865949
40.300000	0.112063	1150.872250	-18.813574	-1.935367
40.400000	0.105609	1158.053885	-18.882668	-1.956213
40.500000	0.110417	1158.355168	-18.977241	-2.004723
40.600000	0.108150	1158.500386	-19.051506	-1.988345
40.700000	0.106374	1160.688703	-19.126014	-2.060955
40.800000	0.119475	1163.260344	-19.204419	-2.167369
40.900000	0.108451	1163.886691	-19.267729	-2.204471
41.000000	0.105704	1167.688879	-19.328919	-2.168337
41.100000	0.107266	1169.723468	-19.419188	-2.220938
41.200000	0.107382	1170.420972	-19.480477	-2.230075
41.300000	0.116348	1170.492299	-19.573663	-2.301092
41.400000	0.114089	1171.056509	-19.642085	-2.298003
41.500000	0.106653	1174.977371	-19.687773	-2.143134
41.600000	0.110174	1176.379023	-19.769045	-2.174885
41.700000	0.111538	1179.181499	-19.854917	-2.204943
41.800000	0.111145	1180.514024	-19.923211	-2.170530
41.900000	0.108344	1179.362532	-19.998925	-2.218136
42.000000	0.104055	1183.488399	-20.063176	-2.217619
42.100000	0.113368	1187.487950	-20.141810	-2.184391
42.200000	0.112687	1186.019252	-20.219530	-2.236452
42.300000	0.113644	1186.023218	-20.310356	-2.229214
42.400000	0.103297	1186.933356	-20.338103	-2.107291
42.500000	0.113384	1188.284858	-20.410218	-2.178120
42.600000	0.106693	1188.695068	-20.473389	-2.134606
42.700000	0.109041	1192.732636	-20.534225	-2.061570
42.800000	0.113652	1193.375513	-20.579346	-1.977848
42.900000	0.106187	1195.767144	-20.639365	-1.938748
43.000000	0.107965	1194.429653	-20.697989	-1.923131
43.100000	0.117327	1198.767068	-20.759008	-1.867706
43.200000	0.107672	1199.554166	-20.838902	-1.874047
43.300000	0.109330	1198.379476	-20.890460	-1.753944
43.400000	0.113456	1202.468854	-20.968991	-1.903958
43.500000	0.115894	1202.396541	-21.025640	-1.867948
43.600000	0.102595	1205.214274	-21.076832	-1.824752
43.700000	0.106551	1206.046598	-21.171677	-1.914701
43.800000	0.117086	1205.823292	-21.240876	-2.010703
43.900000	0.110606	1206.995058	-21.313550	-2.031744
44.000000	0.106568	1209.307771	-21.366342	-2.019362
44.100000	0.107506	1210.634219	-21.435448	-2.048091
44.200000	0.103279	1212.679842	-21.499895	-1.994929
44.300000	0.109896	1212.954060	-21.565999	-2.042566
44.400000	0.112090	1214.789296	-21.622658	-1.980129
44.500000	0.114103	1216.677310	-21.693957	-2.017003
44.600000	0.108114	1217.193347	-21.784621	-2.139807
44.700000	0.107539	1219.547070	-21.870880	-2.119943
44.800000	0.111104	1218.326123	-21.950597	-2.138175
44.900000	0.113531	1218.925121	-22.001774	-2.082125
45.000000	0.108421	1220.506220	-22.086625	-2.180002
45.100000	0.103153	1222.299136	-22.173243	-2.228807
45.200000	0.108052	1222.942820	-22.238967	-2.235362
45.300000	0.110421	1226.500451	-22.316903	-2.269674
45.400000	0.105040	1226.589194	-22.397772	-2.339943
45.500000	0.103476	1227.762877	-22.448431	-2.280066
45.600000	0.110243	1230.013216	-22.505853	-2.187061
45.700000	0.115213	1226.758890	-22.577352	-2.139349
45.800000	0.108429	1231.456422	-22.629196	-2.055861
45.900000	0.114329	1231.775740	-22.707372	-2.129126
46.000000	0.112190	1231.584121	-22.770252	-2.066690
46.100000	0.115582	1232.426009	-22.821816	-1.966021
46.200000	0.114367	1233.941666	-22.903859	-2.004545
46.300000	0.103551	1234.699307	-22.980880	-2.014235
46.400000	0.105901	1235.689150	-23.045331	-1.954389
46.500000	0.104219	1237.017196	-23.106029	-1.996098
46.600000	0.110439	1238.405734	-23.154627	-1.956599
46.700000	0.103835	1237.959591	-23.213967	-1.924788
46.800000	0.114616	1241.834556	-23.282183	-1.971153
46.900000	0.104786	1239.581301	-23.337646	-1.915769
47.000000	0.110844	1242.531239	-23.401984	-1.906310
47.100000	0.108618	1243.200420	-23.478043	-1.980653
47.200000	0.114321	1243.686772	-23.554266	-1.975911
47.300000	0.108463	1245.928948	-23.629157	-1.953361
47.400000	0.118111	1246.917371	-23.684895	-1.938530
47.500000	0.111468	1246.374794	-23.740337	-1.912550
47.600000	0.104323	1249.087211	-23.796575	-1.941669
47.700000	0.105878	1249.493792	-23.884005	-2.023022
47.800000	0.111781	1249.944599	-23.955489	-2.038412
47.900000	0.115068	1252.676233	-23.995724	-1.986509
48.000000	0.112071	1252.311062	-24.087847	-2.075288
48.100000	0.115854	1256.136084	-24.143265	-2.012190
48.200000	0.109446	1254.490457	-24.199591	-1.951677
48.300000	0.113850	1256.649323	-24.280726	-1.971069
48.400000	0.106929	1257.165871	-24.367391	-2.062591
48.500000	0.113306	1258.455290	-24.453986	-2.159028
48.600000	0.110092	1258.050159	-24.516935	-2.170075
48.700000	0.111759	1260.561929	-24.597959	-2.162467
48.800000	0.111964	1261.220259	-24.685740	-2.206805
48.900000	0.116167	1262.185310	-24.743741	-2.262409
49.000000	0.113933	1262.110986	-24.806671	-2.174924
49.100000	0.112559	1264.102667	-24.853678	-2.146584
49.200000	0.106778	1264.890294	-24.971554	-2.329053
49.300000	0.114729	1264.558861	-25.040863	-2.302877
49.400000	0.109350	1267.439443	-25.070297	-2.129089
49.500000	0.115607	1266.573212	-25.123078	-2.023087
49.600000	0.108712	1267.060099	-25.194638	-2.052667
49.700000	0.108687	1268.420386	-25.242834	-1.951866
49.800000	0.110013	1267.683839	-25.323378	-1.927572
49.900000	0.115524	1269.224199	-25.385419	-1.940774
50.000000	0.107392	1268.642126	-25.447455	-1.942501
50.100000	0.116048	1270.339029	-25.520138	-2.012119
50.200000	0.110769	1271.134124	-25.564808	-1.799351
50.300000	0.106600	1270.583294	-25.639002	-1.810361
50.400000	0.111025	1272.985896	-25.729723	-1.987828
50.500000	0.111774	1272.931294	-25.781441	-1.985285
50.600000	0.128178	1272.651631	-25.842158	-1.963798
50.700000	0.103384	1273.839321	-25.894587	-1.974657
50.800000	0.105457	1275.676670	-25.944639	-1.874028
50.900000	0.105778	1275.781752	-25.991056	-1.836456
51.000000	0.102825	1274.418029	-26.053402	-1.828047
51.100000	0.107432	1275.549729	-26.114818	-1.801710
51.200000	0.110553	1275.955822	-26.150612	-1.773880
51.300000	0.100704	1276.442810	-26.187202	-1.657034
51.400000	0.103111	1274.657555	-26.296982	-1.718934
51.500000	0.101808	1277.458569	-26.357010	-1.740397
51.600000	0.109505	1277.707287	-26.442336	-1.807072
51.700000	0.108098	1276.859228	-26.518953	-1.886186
51.800000	0.100109	1275.306670	-26.582652	-1.932422
51.900000	0.107804	1270.971940	-26.659999	-2.019411
52.000000	0.107991	1262.657946	-26.718993	-2.010960
52.100000	0.104208	1248.019082	-26.786235	-2.029600
52.200000	0.106232	1205.679267	-26.849076	-2.105461
52.300000	0.096619	774.452087	-26.560583	-1.336177
52.400000	0.098717	-2.979989	-24.778185	4.595169
52.500000	0.104776	-3.500669	-24.922000	4.327595
52.600000	0.127354	-3.114806	-24.938494	4.531502
52.700000	0.103629	-2.656826	-24.949516	4.729822
52.800000	0.117965	-3.143037	-24.926300	4.997700
52.900000	0.112815	-2.880524	-24.941962	5.184508
53.000000	0.103027	-6.307440	-24.944465	5.352692
53.100000	0.112877	-4.564323	-24.944068	5.557575
53.200000	0.119568	-5.787607	-24.932815	5.778069
53.300000	0.111638	-3.344295	-24.920180	5.217012
53.400000	0.106241	-4.146800	-24.940428	-0.510184
53.500000	0.114796	-4.271734	-24.931827	-0.034234
53.600000	0.100708	-5.116931	-24.950888	-0.033559
53.700000	0.105648	-5.333078	-24.944596	0.015165
53.800000	0.113352	-6.140178	-24.959496	-0.099914
53.900000	0.101130	-4.842645	-24.943434	-0.005972
54.000000	0.103195	-3.578800	-24.944964	-0.004600
54.100000	0.115005	-1.782435	-24.938071	0.019661
54.200000	0.112930	-4.064420	-24.947642	-0.044548
54.300000	0.114486	-5.000027	-24.933359	-0.037949
54.400000	0.111323	-4.416475	-24.960946	-0.058514
54.500000	0.105957	-5.737778	-24.955224	-0.068847
54.600000	0.116961	-4.371326	-24.935620	0.031004
54.700000	0.104068	-5.388021	-24.862466	0.247490
54.800000	0.108199	-3.692156	-24.866364	0.279024
54.900000	0.111357	-2.477530	-24.873713	0.218177
55.000000	0.101929	-4.289094	-24.913493	0.100769
