LabVIEW Measurement	
Writer_Version	2
Reader_Version	2
Separator	Tab
Decimal_Separator	.
Multi_Headings	No
X_Columns	One
Time_Pref	Absolute
Operator	trimgus
Date	2022/03/22
Time	13:27:13.5261683464050292969
***End_of_Header***	
	
Notes	X values guaranteed valid only for Extensometer Displacement-mm (Mean)				
Channels	4				
Samples	1	1	1	1	
Date	2022/03/22	2022/03/22	2022/03/22	2022/03/22	
Time	13:27:13.5261683464050292969	13:27:13.5261683464050292969	13:27:13.5261683464050292969	13:27:13.5272774696350097656	
Y_Unit_Label	Volts	Volts	Volts	Volts	
X_Dimension	Time	Time	Time	Time	
X0	0.0000000000000000E+0	0.0000000000000000E+0	0.0000000000000000E+0	9.9000000000000005E-2	
Delta_X	0.100000	0.100000	0.100000	0.100000	
***End_of_Header***					
X_Value	Extensometer Displacement-mm (Mean)	Force-N (Mean)	Global Displacement-mm (Mean)	Global Displacement-mm (Mean) 1	Comment
0.000000	-0.003412	-1.722061	0.005442	0.046639
0.100000	0.000571	-1.928569	0.008326	0.077771
0.200000	-0.002807	-0.743586	-0.022173	-0.065308
0.300000	0.007434	-1.810023	-0.003025	0.023069
0.400000	0.001745	-1.190879	-0.004185	-0.060047
0.500000	0.001295	-1.571766	-0.008612	-0.150808
0.600000	0.005807	-1.044505	0.004838	0.035683
0.700000	0.005273	-0.944508	0.006051	0.027962
0.800000	0.005313	6.623474	0.013512	0.040930
0.900000	0.004485	9.576044	0.002916	-0.009868
1.000000	0.001714	12.662785	0.024499	0.073801
1.100000	0.006117	12.839559	0.033308	0.093689
1.200000	0.005475	16.782151	0.050723	0.286115
1.300000	-0.003384	18.117102	0.058280	0.229799
1.400000	-7.650160E-5	12.525161	0.095097	0.395880
1.500000	0.007129	8.583499	0.084812	0.368419
1.600000	0.002738	8.416252	0.101569	0.377413
1.700000	0.005075	10.804779	0.091570	0.343902
1.800000	-0.000978	10.075820	0.092948	0.304647
1.900000	-0.001375	10.501212	0.109887	0.414961
2.000000	0.001007	13.133370	0.129816	0.417276
2.100000	0.009922	22.465001	0.196336	0.631168
2.200000	0.001162	29.431406	0.260854	0.816209
2.300000	0.000761	35.890874	0.304055	0.971010
2.400000	-0.000770	38.243163	0.343485	0.968544
2.500000	0.009319	45.559037	0.371966	1.121528
2.600000	0.005157	52.420548	0.400622	1.172984
2.700000	0.005750	52.758761	0.437028	1.346071
2.800000	-0.002149	61.787773	0.476086	1.505943
2.900000	0.009060	68.615253	0.507513	1.557979
3.000000	0.001585	82.317306	0.556758	1.674834
3.100000	0.001820	91.315277	0.597020	1.581587
3.200000	0.001836	93.618273	0.633543	1.469656
3.300000	0.005510	100.412946	0.647357	1.353366
3.400000	0.006343	103.173945	0.679772	1.320471
3.500000	-0.002356	112.579901	0.713749	1.343447
3.600000	0.013541	127.189635	0.744023	1.341969
3.700000	0.012333	144.661278	0.782901	1.360752
3.800000	0.009580	158.840505	0.840473	1.430180
3.900000	0.012929	171.512655	0.854715	1.368211
4.000000	0.014157	186.807460	0.882106	1.281187
4.100000	0.006605	198.543005	0.909735	1.230626
4.200000	0.007500	211.589736	0.957915	1.269557
4.300000	0.005052	210.329119	0.996024	1.366089
4.400000	0.014213	227.858464	1.040374	1.416277
4.500000	0.013901	244.985736	1.089609	1.475033
4.600000	0.014248	264.345093	1.125525	1.506154
4.700000	0.011668	278.630090	1.160085	1.478275
4.800000	0.024175	297.192287	1.218916	1.481519
4.900000	0.015159	315.514738	1.241679	1.528241
5.000000	0.015921	336.704674	1.265735	1.504317
5.100000	0.013320	355.073979	1.311449	1.579859
5.200000	0.008018	373.336966	1.347102	1.530858
5.300000	0.019448	389.108632	1.368988	1.465625
5.400000	0.025267	406.868716	1.404116	1.432818
5.500000	0.010337	421.975626	1.438073	1.367067
5.600000	0.018654	434.675603	1.465039	1.330719
5.700000	0.022419	449.421564	1.493040	1.318842
5.800000	0.023056	468.754918	1.500776	1.115291
5.900000	0.016613	486.243511	1.546248	1.184837
6.000000	0.024744	503.361416	1.594945	1.286163
6.100000	0.019565	520.579835	1.608861	1.173464
6.200000	0.029672	538.955064	1.648587	1.190130
6.300000	0.033325	559.860177	1.692411	1.272298
6.400000	0.025648	574.294083	1.689683	1.116709
6.500000	0.032332	591.648474	1.730399	1.154531
6.600000	0.034392	604.062451	1.758652	1.158918
6.700000	0.036494	620.188010	1.808503	1.225262
6.800000	0.043542	638.177537	1.859149	1.407912
6.900000	0.059603	645.541622	1.911314	1.429354
7.000000	0.070575	649.143645	1.927243	1.317183
7.100000	0.092279	650.888269	1.975166	1.434281
7.200000	0.104364	656.444923	2.002999	1.389795
7.300000	0.129862	663.665584	2.026645	1.310629
7.400000	0.145271	670.822530	2.052556	1.433335
7.500000	0.158219	680.689517	2.089977	1.408225
7.600000	0.176465	687.928005	2.119456	1.408587
7.700000	0.189827	694.181254	2.145903	1.338140
7.800000	0.203909	701.604515	2.156035	1.169670
7.900000	0.209216	708.908343	2.182403	1.076563
8.000000	0.229944	711.886723	2.215300	1.121880
8.100000	0.254211	719.451316	2.261873	1.129069
8.200000	0.276174	730.487248	2.270370	1.058255
8.300000	0.292097	731.288366	2.302452	1.080028
8.400000	0.303778	733.005645	2.335618	1.111886
8.500000	0.326449	735.844559	2.334763	0.957658
8.600000	0.345248	736.580150	2.360198	0.956874
8.700000	0.358168	738.825578	2.396941	0.982275
8.800000	0.367562	748.016504	2.419054	1.029462
8.900000	0.386625	756.609443	2.440046	1.011348
9.000000	0.389318	763.385628	2.477682	1.039649
9.100000	0.406579	769.435033	2.488970	0.889343
9.200000	0.418380	772.104107	2.516285	0.962569
9.300000	0.436348	777.064376	2.541329	0.940662
9.400000	0.443261	781.810573	2.556712	0.866912
9.500000	0.456750	785.429892	2.581099	0.978931
9.600000	0.456898	793.018240	2.601905	0.935481
9.700000	0.470753	798.973484	2.649366	0.994838
9.800000	0.488436	808.442460	2.676211	1.015669
9.900000	0.512453	818.168688	2.697932	1.005787
10.000000	0.524582	827.090550	2.761661	1.112139
10.100000	0.539174	832.305731	2.782924	1.157076
10.200000	0.564513	832.910876	2.810628	1.155634
10.300000	0.575788	835.343375	2.833188	1.147622
10.400000	0.593769	846.484317	2.866148	1.216663
10.500000	0.602151	855.925709	2.883303	1.179159
10.600000	0.622207	859.877153	2.912110	1.224729
10.700000	0.639415	865.315985	2.948840	1.179575
10.800000	0.652735	873.026818	2.985107	1.205425
10.900000	0.683596	882.347454	3.067717	1.453038
11.000000	0.708016	887.047949	3.097186	1.322090
11.100000	0.720677	888.627470	3.117593	1.312715
11.200000	0.733073	888.631444	3.162180	1.382214
11.300000	0.750609	894.350542	3.186167	1.380210
11.400000	0.762299	904.737845	3.220721	1.396661
11.500000	0.773692	909.035124	3.236002	1.384457
11.600000	0.786971	912.688701	3.264752	1.385591
11.700000	0.810656	915.201102	3.317153	1.445993
11.800000	0.829957	922.310266	3.343757	1.409660
11.900000	0.844728	930.672714	3.389495	1.277385
12.000000	0.871135	930.002991	3.422602	1.270047
12.100000	0.877828	931.743909	3.466057	1.366973
12.200000	0.897830	938.950908	3.503205	1.337962
12.300000	0.909815	939.073332	3.512874	1.288901
12.400000	0.922642	942.915703	3.557649	1.322413
12.500000	0.934968	947.037616	3.578522	1.343696
12.600000	0.955063	952.777737	3.603126	1.340226
12.700000	0.975709	960.470586	3.649216	1.299853
12.800000	0.986820	967.175319	3.671977	1.289094
12.900000	1.013715	973.868639	3.701481	1.212631
13.000000	1.027815	978.608065	3.757920	1.335610
13.100000	1.047190	976.018955	3.771989	1.204257
13.200000	1.055687	976.337170	3.807330	1.193623
13.300000	1.080667	979.922610	3.822711	1.215527
13.400000	1.089890	983.853985	3.842056	1.113676
13.500000	1.104282	990.880043	3.877250	1.172809
13.600000	1.124639	992.469784	3.910463	1.201538
13.700000	1.147931	996.572119	3.941383	1.157727
13.800000	1.163332	1001.214261	3.974311	1.181294
13.900000	1.179777	1005.973483	4.034946	1.317818
14.000000	1.196581	1015.477573	4.081340	1.263341
14.100000	1.222794	1013.024592	4.113443	1.335450
14.200000	1.229301	1012.754355	4.150818	1.356629
14.300000	1.249158	1013.733342	4.176258	1.381909
14.400000	1.254295	1018.674841	4.179706	1.340044
14.500000	1.276312	1025.540008	4.206997	1.289799
14.600000	1.292268	1029.567865	4.238712	1.293525
14.700000	1.307170	1034.174342	4.262656	1.254675
14.800000	1.324562	1035.590401	4.301612	1.296876
14.900000	1.350564	1040.596320	4.333816	1.175037
15.000000	1.371055	1044.083730	4.368732	1.127458
15.100000	1.392640	1046.011552	4.387022	1.082760
15.200000	1.405492	1050.034189	4.419252	1.050123
15.300000	1.415817	1051.016024	4.426284	0.984938
15.400000	1.429810	1056.315331	4.473762	1.150806
15.500000	1.461956	1061.265346	4.500078	1.148085
15.600000	1.472476	1061.413186	4.520605	1.112733
15.700000	1.501638	1063.222726	4.554180	1.147525
15.800000	1.517966	1065.970076	4.593303	1.139697
15.900000	1.533678	1070.163562	4.627742	1.159535
16.000000	1.553114	1073.492045	4.649731	1.103664
16.100000	1.574005	1076.871195	4.676699	1.136924
16.200000	1.588431	1075.730746	4.704594	1.122472
16.300000	1.599543	1075.592886	4.726331	1.180541
16.400000	1.622097	1079.408994	4.759588	1.119236
16.500000	1.641567	1085.420321	4.793112	1.150089
16.600000	1.654865	1090.186752	4.828942	1.216298
16.700000	1.679164	1089.433334	4.841197	1.124828
16.800000	1.691575	1092.006411	4.867274	1.078226
16.900000	1.705658	1093.003529	4.894874	1.053187
17.000000	1.722525	1094.963554	4.918045	1.047151
17.100000	1.744763	1100.355124	4.944592	1.059008
17.200000	1.767488	1102.377300	4.985768	1.102791
17.300000	1.784103	1102.189414	5.011101	1.119305
17.400000	1.792027	1102.761637	5.010891	0.984010
17.500000	1.816307	1103.476435	5.046827	1.007945
17.600000	1.829239	1103.425634	5.078540	0.974330
17.700000	1.846467	1108.560558	5.124581	1.108546
17.800000	1.861518	1110.144592	5.135364	1.059495
17.900000	1.870500	1110.518355	5.148402	0.994764
18.000000	1.884399	1112.072235	5.183615	1.045302
18.100000	1.910968	1112.231138	5.220800	1.080031
18.200000	1.912602	1107.526482	5.234882	0.987251
18.300000	1.918358	1108.351259	5.255901	0.957380
18.400000	1.935533	1114.059133	5.272023	1.031038
18.500000	1.951901	1118.006433	5.306708	1.020002
18.600000	1.957365	1101.852749	5.300086	0.867514
18.700000	1.965939	1096.763510	5.327802	0.803722
18.800000	1.959896	1090.999092	5.396997	1.025002
18.900000	1.966644	1085.099265	5.392330	0.963578
19.000000	1.964377	1083.532829	5.407142	0.876116
19.100000	1.969806	1082.048801	5.408650	0.742399
19.200000	1.968565	1078.958443	5.399774	0.650907
19.300000	1.952925	1078.988716	5.421506	0.651317
19.400000	1.950622	1076.213131	5.412575	0.551715
19.500000	1.965275	1075.053060	5.421137	0.456324
19.600000	1.954423	1073.143194	5.410741	0.439176
19.700000	1.726547	1071.575130	5.405668	0.309013
19.800000	1.307550	1070.425799	5.422528	0.100643
19.900000	0.834190	1068.633738	5.445991	0.212101
20.000000	-0.077583	1067.858405	5.419421	0.056996
20.100000	-1.573454	1065.372594	5.437489	0.111385
20.200000	-1.923655	1067.180877	5.429304	0.112423
20.300000	-2.040719	1065.935687	5.427370	0.024543
20.400000	-2.146528	1064.075603	5.424573	0.055187
20.500000	-2.549173	1061.933101	5.415680	-0.025157
20.600000	-2.856049	1062.286400	5.422597	0.044653
20.700000	-2.743282	1061.924352	5.443573	0.150636
20.800000	-2.887728	1061.374286	5.421002	-0.003836
20.900000	-2.820817	1060.082376	5.434012	-0.054410
21.000000	-2.727833	1062.032728	5.414318	-0.018703
21.100000	-2.476099	1057.284154	5.429338	-0.028564
21.200000	-1.812172	1058.925388	5.435432	0.025447
21.300000	-0.299364	1059.107387	5.406147	-0.082032
21.400000	0.209134	1058.986573	5.420475	-0.022642
21.500000	0.362021	1058.306462	5.409748	-0.023545
21.600000	0.322695	1058.507033	5.427699	0.022566
21.700000	0.461475	1057.725732	5.438643	-0.019268
21.800000	0.578576	1057.152409	5.419397	-0.006897
21.900000	0.711220	1055.890542	5.436214	0.009308
22.000000	0.766956	1058.968568	5.424539	0.043153
22.100000	0.708971	1056.104079	5.436923	0.030206
22.200000	0.210563	1056.543837	5.425965	-0.042099
22.300000	0.224081	1057.568916	5.437277	0.121143
22.400000	0.236696	1057.883642	5.442163	0.087690
22.500000	0.173667	1059.324070	5.434776	0.095150
22.600000	0.231058	1054.744619	5.429501	0.012253
22.700000	0.246228	1057.162543	5.449316	0.040263
22.800000	0.242674	1058.370658	5.425042	0.022350
22.900000	0.296848	1056.418213	5.433855	-0.004964
23.000000	0.205750	1056.133335	5.424335	-0.004216
23.100000	-0.212823	1054.208880	5.434548	-0.011657
23.200000	-0.275090	1055.188212	5.422480	-0.013881
23.300000	-0.229472	1055.104637	5.422792	-0.053965
23.400000	-0.180187	1055.267934	5.445378	0.005828
23.500000	-0.210125	1053.102299	5.422551	-0.039533
23.600000	-0.207624	1054.424124	5.424923	-0.020945
23.700000	-0.190505	1054.790703	5.427973	-0.084620
23.800000	-0.202064	1056.434919	5.428362	0.017538
23.900000	-0.104867	1054.653317	5.436929	0.010385
24.000000	0.100827	1055.158052	5.424405	-0.006835
24.100000	0.203941	1053.150939	5.421832	-0.047049
24.200000	0.225312	1054.350668	5.436554	0.054983
24.300000	0.241327	1054.557710	5.429508	0.030196
24.400000	0.275691	1054.864969	5.423752	-0.080550
24.500000	0.251989	1055.770683	5.446903	0.088322
24.600000	0.191039	1055.574954	5.441418	0.067475
24.700000	0.002194	1053.777437	5.426518	0.000611
24.800000	-0.508176	1053.588809	5.406827	-0.093185
24.900000	-1.945122	1054.333431	5.436399	0.000981
25.000000	-1.424943	1052.777615	5.426279	0.014174
25.100000	-0.730449	1053.245155	5.425974	0.011960
25.200000	-0.227790	1054.635275	5.428544	-0.035680
25.300000	0.769709	1053.822681	5.420991	-0.034189
25.400000	1.315131	1054.522174	5.429093	0.021282
25.500000	1.300120	1052.850955	5.416654	-0.119422
25.600000	1.183171	1052.882493	5.418146	-0.094808
25.700000	1.088177	1053.347908	5.413917	-0.046323
25.800000	1.112768	1053.236646	5.429297	0.082949
25.900000	1.184045	1052.347550	5.432462	-0.010163
26.000000	1.333767	1052.444162	5.436026	0.037066
26.100000	1.422818	1053.518065	5.428407	0.012496
26.200000	1.446690	1051.998523	5.429448	0.006671
26.300000	1.545328	1052.667860	5.437644	0.061014
26.400000	1.573171	1052.219727	5.440041	0.047205
26.500000	1.614032	1053.043846	5.429210	0.046936
26.600000	1.787852	1050.845068	5.442560	0.097714
26.700000	1.818646	1051.506944	5.431188	0.063157
26.800000	1.770009	1051.813555	5.434525	0.027324
26.900000	1.754307	1052.542138	5.433622	0.002112
27.000000	1.608094	1053.478718	5.429422	-0.025909
27.100000	0.795707	1054.814694	5.439675	0.040829
27.200000	0.215855	1053.414972	5.409628	-0.076902
27.300000	0.028583	1052.655328	5.414876	-0.089534
27.400000	-0.133558	1051.073812	5.428319	-0.050240
27.500000	-0.269397	1051.458513	5.419324	-0.030672
27.600000	-0.507050	1050.935731	5.423216	-0.077325
27.700000	-0.510804	1051.421015	5.430504	-0.006295
27.800000	-0.863806	1052.360261	5.429028	-0.018523
27.900000	-2.344109	1052.300896	5.412846	-0.086345
28.000000	-2.888543	1050.192736	5.425827	-0.016201
28.100000	-2.687393	1053.013661	5.421529	-0.062168
28.200000	-2.523184	1054.559340	5.433333	0.088706
28.300000	-1.883535	1054.479630	5.432492	0.066482
28.400000	-1.143532	1054.131964	5.424501	-0.008117
28.500000	-0.148355	1052.679643	5.421730	0.008878
28.600000	0.280185	1051.464325	5.433278	0.034273
28.700000	0.199651	1054.736862	5.432354	0.010756
28.800000	0.218860	1051.618755	5.446358	0.068404
28.900000	0.183532	1052.576689	5.433079	0.080037
29.000000	0.122939	1051.269942	5.416285	-0.035443
29.100000	0.107236	1052.264138	5.427179	0.014200
29.200000	0.111374	1051.359444	5.433158	-0.004186
29.300000	0.109951	1052.008820	5.425394	-0.014411
29.400000	0.124414	1051.509971	5.413556	-0.048049
29.500000	0.114034	1049.588683	5.414371	-0.033627
29.600000	0.119663	1049.210802	5.411089	-0.080830
29.700000	0.129162	1049.416275	5.421766	-0.041427
29.800000	0.135347	1051.458760	5.433306	-0.055533
29.900000	0.141348	1050.947267	5.424575	-0.037897
30.000000	0.163704	1051.093239	5.439516	0.094034
30.100000	0.169118	1050.687059	5.441967	0.060533
30.200000	0.204150	1052.674086	5.436484	0.021618
30.300000	0.191508	1051.406445	5.414686	-0.052255
30.400000	0.117755	1052.500308	5.439223	0.097317
30.500000	0.108151	1050.611485	5.446249	0.130170
30.600000	0.131415	1050.071847	5.426804	0.063377
30.700000	0.130011	1051.381959	5.440680	0.077345
30.800000	0.120478	1049.775167	5.408947	-0.097169
30.900000	0.115917	1048.851852	5.418264	-0.020322
31.000000	0.119194	1049.942120	5.424268	-0.063681
31.100000	0.117090	1049.200822	5.431620	-0.037555
31.200000	0.113688	1048.773765	5.423117	-0.062450
31.300000	0.113576	1051.131709	5.431926	0.069254
31.400000	0.117150	1051.459957	5.437709	-0.000924
31.500000	0.123244	1051.938054	5.417268	-0.113086
31.600000	0.115806	1049.045137	5.417840	-0.043706
31.700000	0.116215	1050.807947	5.429493	-0.044593
31.800000	0.122286	1048.938525	5.445375	0.148711
31.900000	0.117924	1049.696436	5.444348	0.095339
32.000000	0.115229	1049.208518	5.443798	0.080446
32.100000	0.129099	1050.430543	5.470105	0.146582
32.200000	0.116431	1051.019076	5.448863	0.101476
32.300000	0.113724	1051.166699	5.422116	-0.027831
32.400000	0.115496	1057.657985	5.414313	-0.093583
32.500000	0.117831	1078.468664	5.425348	0.028110
32.600000	0.125833	1109.959409	5.431357	0.054985
32.700000	0.122669	1130.549179	5.453056	0.088715
32.800000	0.113256	1135.968696	5.471282	0.093667
32.900000	0.120557	1131.651164	5.516132	0.285823
33.000000	0.119187	1138.317920	5.539342	0.370046
33.100000	0.119609	1139.275970	5.570963	0.394480
33.200000	0.129274	1141.987801	5.609649	0.627086
33.300000	0.115153	1136.972894	5.624786	0.784527
33.400000	0.120767	1137.267772	5.649436	0.923239
33.500000	0.121007	1141.418773	5.683337	1.006615
33.600000	0.117547	1148.424680	5.703893	1.072942
33.700000	0.118979	1148.031829	5.749453	1.159857
33.800000	0.124717	1150.661597	5.788151	1.247201
33.900000	0.110476	1148.635826	5.785545	1.064507
34.000000	0.118903	1145.669373	5.813078	1.075104
34.100000	0.118075	1143.528161	5.834828	1.029667
34.200000	0.124871	1147.376153	5.860803	0.995644
34.300000	0.127482	1155.876006	5.906157	1.096484
34.400000	0.121054	1156.486715	5.951413	1.181094
34.500000	0.117523	1159.083101	5.976365	1.160069
34.600000	0.123400	1162.882147	5.991708	1.126806
34.700000	0.119023	1166.648169	6.044657	1.159245
34.800000	0.113565	1168.529991	6.090101	1.186983
34.900000	0.117271	1169.121836	6.111208	1.272580
35.000000	0.111841	1167.245370	6.166424	1.389199
35.100000	0.117993	1166.560542	6.177887	1.354711
35.200000	0.122808	1169.924313	6.200405	1.325846
35.300000	0.129058	1173.171748	6.233257	1.289455
35.400000	0.117910	1172.585482	6.276499	1.279289
35.500000	0.112284	1173.595029	6.302038	1.279717
35.600000	0.111652	1174.852634	6.336021	1.353860
35.700000	0.119352	1178.281539	6.358916	1.234043
35.800000	0.116683	1184.434183	6.420529	1.300409
35.900000	0.118087	1181.073807	6.431214	1.256739
36.000000	0.116485	1180.528292	6.474739	1.209354
36.100000	0.112678	1183.677901	6.493544	1.244233
36.200000	0.119488	1179.030196	6.516132	1.244153
36.300000	0.122334	1180.451733	6.521754	1.133841
36.400000	0.116014	1181.855940	6.573030	1.166619
36.500000	0.121080	1182.019043	6.581251	1.096736
36.600000	0.124872	1186.072019	6.618133	1.111928
36.700000	0.117963	1186.845221	6.637443	1.093362
36.800000	0.118274	1190.638524	6.668323	0.975710
36.900000	0.119900	1187.835059	6.706669	1.079121
37.000000	0.121788	1190.906941	6.716995	0.952639
37.100000	0.119097	1190.708564	6.732575	0.939012
37.200000	0.113896	1188.332329	6.743172	0.889904
37.300000	0.121528	1191.316625	6.762013	0.944416
37.400000	0.120693	1195.104142	6.792668	0.869307
37.500000	0.123165	1193.510823	6.826270	0.958444
37.600000	0.119382	1190.399500	6.838065	0.863152
37.700000	0.115296	1190.705697	6.858521	0.875920
37.800000	0.118434	1188.367206	6.862701	0.767464
37.900000	0.112796	1188.179576	6.876790	0.666652
38.000000	0.116904	1191.918925	6.897819	0.713561
38.100000	0.118807	1194.293554	6.910550	0.695303
38.200000	0.116599	1195.244971	6.940483	0.779011
38.300000	0.121825	1198.665614	6.976836	0.843827
38.400000	0.114827	1202.732446	7.003591	0.822783
38.500000	0.114814	1197.621909	7.032895	0.816374
38.600000	0.122178	1199.660292	7.040023	0.787079
38.700000	0.115082	1202.777062	7.069285	0.829515
38.800000	0.122022	1204.334783	7.072909	0.821689
38.900000	0.118967	1202.642891	7.094431	0.853691
39.000000	0.118943	1197.524465	7.129888	0.914979
39.100000	0.123738	1199.242877	7.147330	0.931769
39.200000	0.118785	1200.567665	7.188104	0.968603
39.300000	0.120637	1201.292049	7.187930	0.834109
39.400000	0.126198	1204.946094	7.204423	0.792633
39.500000	0.124539	1205.464671	7.218058	0.728101
39.600000	0.117153	1210.589648	7.247136	0.814454
39.700000	0.121848	1216.214193	7.298493	0.891705
39.800000	0.120341	1214.120263	7.316952	0.962929
39.900000	0.126198	1208.748202	7.357604	1.038040
40.000000	0.118507	1208.993492	7.364684	0.921045
40.100000	0.123234	1208.993026	7.380244	0.910427
40.200000	0.125995	1207.274023	7.410394	0.877396
40.300000	0.114318	1211.714897	7.454099	1.039838
40.400000	0.111120	1210.111782	7.466381	1.028943
40.500000	0.118644	1209.693098	7.478124	1.026116
40.600000	0.120535	1214.759425	7.506081	1.013349
40.700000	0.132948	1215.295531	7.510677	0.846045
40.800000	0.119399	1213.815919	7.539065	0.863459
40.900000	0.118173	1215.383611	7.553193	0.766214
41.000000	0.124921	1222.214099	7.599685	0.924071
41.100000	0.109667	1218.942045	7.616469	0.929025
41.200000	0.119305	1219.456337	7.647056	0.932642
41.300000	0.116065	1217.909492	7.686461	0.915508
41.400000	0.116024	1219.810905	7.705304	0.936300
41.500000	0.121526	1218.836501	7.730048	0.981130
41.600000	0.126036	1217.564826	7.744408	0.938183
41.700000	0.124201	1222.610067	7.770826	1.024557
41.800000	0.125197	1223.289985	7.801228	1.034060
41.900000	0.120806	1226.132724	7.818361	1.038945
42.000000	0.117496	1226.014974	7.862197	1.031852
42.100000	0.119953	1229.754639	7.892937	1.084799
42.200000	0.121488	1223.853159	7.935088	1.128362
42.300000	0.125412	1225.016041	7.961135	1.082256
42.400000	0.116068	1223.971244	7.990282	1.111552
42.500000	0.120367	1222.608644	8.022357	1.155062
42.600000	0.124539	1223.219319	8.050267	1.204200
42.700000	0.122341	1226.007806	8.073940	1.183639
42.800000	0.118087	1223.667274	8.097333	1.161872
42.900000	0.121713	1223.428214	8.152932	1.314914
43.000000	0.124645	1226.282262	8.194810	1.305026
43.100000	0.121148	1227.513855	8.213479	1.268441
43.200000	0.123803	1224.665947	8.229341	1.158953
43.300000	0.116449	1224.847463	8.258213	1.159002
43.400000	0.114156	1232.735317	8.303815	1.239586
43.500000	0.120855	1232.505612	8.325073	1.182526
43.600000	0.119667	1228.232312	8.362367	1.224473
43.700000	0.120991	1225.637550	8.384953	1.220678
43.800000	0.117614	1227.998560	8.422307	1.274024
43.900000	0.115047	1230.527586	8.448749	1.171314
44.000000	0.115607	1227.182085	8.486549	1.145236
44.100000	0.119684	1229.395744	8.516661	1.186246
44.200000	0.117220	1230.714119	8.554220	1.270369
44.300000	0.114365	1230.617602	8.584000	1.286975
44.400000	0.107747	1232.028746	8.614128	1.213021
44.500000	0.119833	1235.369621	8.656452	1.308462
44.600000	0.118451	1230.436241	8.683551	1.265362
44.700000	0.122185	1231.862217	8.703665	1.246623
44.800000	0.127464	1231.405240	8.742152	1.267520
44.900000	0.115996	1231.068517	8.768285	1.249020
45.000000	0.121012	1229.101139	8.791961	1.202588
45.100000	0.121921	1226.627452	8.834392	1.240440
45.200000	0.118444	1223.637837	8.858339	1.197977
45.300000	0.119144	1228.758683	8.875976	1.150204
45.400000	0.122723	1230.382905	8.896425	1.121463
45.500000	0.118492	1231.647838	8.912462	0.995817
45.600000	0.120822	1229.111916	8.931137	0.974918
45.700000	0.117047	1229.395685	8.962189	1.017956
45.800000	0.117313	1230.651186	8.991371	0.967865
45.900000	0.119732	1230.888063	9.029888	1.039623
46.000000	0.123703	1228.141519	9.067759	1.079230
46.100000	0.120324	1227.565647	9.082812	0.986934
46.200000	0.117169	1224.456386	9.116130	1.009283
46.300000	0.123546	1225.948961	9.148958	1.064707
46.400000	0.127351	1225.733414	9.179147	1.112711
46.500000	0.114447	1224.696316	9.198634	1.126324
46.600000	0.117298	1225.088566	9.230882	1.176188
46.700000	0.119455	1229.461752	9.261938	1.182299
46.800000	0.126747	1225.577842	9.289659	1.173943
46.900000	0.115208	1221.493188	9.324607	1.150654
47.000000	0.123514	1222.566872	9.343044	1.082669
47.100000	0.111510	1221.153902	9.389154	1.202276
47.200000	0.122845	1221.606001	9.361985	0.973136
47.300000	0.124859	1215.072035	9.414682	1.041302
47.400000	0.120972	1214.221650	9.434002	0.996544
47.500000	0.123592	1215.426352	9.450459	1.000628
47.600000	0.122613	1212.172078	9.478219	0.967391
47.700000	0.113937	1213.013661	9.479025	0.854063
47.800000	0.129480	1214.786144	9.509181	0.862050
47.900000	0.118074	1213.000722	9.557755	0.919029
48.000000	0.122351	1209.616013	9.623048	1.099995
48.100000	0.122549	1200.881535	9.635092	0.964618
48.200000	0.121238	1197.603373	9.636203	1.074242
48.300000	0.127060	1200.214326	9.657759	0.960402
48.400000	0.122681	1193.241223	9.689903	1.005372
48.500000	0.124714	1191.097369	9.714718	1.029189
48.600000	0.122010	1187.069454	9.747324	1.055068
48.700000	0.118019	1180.245374	9.775023	1.161328
48.800000	0.116939	1177.332661	9.793115	1.115626
48.900000	0.112725	1174.811482	9.841679	1.118167
49.000000	0.120479	1166.988372	9.858571	0.931201
49.100000	0.110800	1159.817213	9.912822	1.085249
49.200000	0.117623	1148.840147	9.940270	1.196786
49.300000	0.118912	1135.995001	9.958444	1.176412
49.400000	0.123195	1123.238489	9.995323	1.197320
49.500000	0.116059	1109.734375	10.016347	1.189232
49.600000	0.117953	1095.914942	10.051777	1.201799
49.700000	0.120696	1081.600110	10.078248	1.191267
49.800000	0.118177	1065.670996	10.096702	1.193828
49.900000	0.122232	1046.367507	10.132514	1.140485
50.000000	0.117367	1025.028301	10.170926	1.227434
50.100000	0.122199	1005.981699	10.185761	1.076158
50.200000	0.111230	972.556393	10.230899	1.133695
50.300000	0.127957	930.562784	10.278341	1.253743
50.400000	0.112619	867.539935	10.345169	1.368945
50.500000	0.125189	455.543835	10.560071	2.082791
50.600000	0.126188	-6.343395	10.882752	3.259383
50.700000	0.118987	-5.313667	10.928847	3.333632
50.800000	0.117090	-5.421275	10.954761	3.377887
50.900000	0.121347	-6.623636	10.967015	3.274969
51.000000	0.126774	-4.463245	10.963289	3.119189
51.100000	0.124736	-7.304729	10.944975	2.985397
51.200000	0.116934	-5.740214	10.956166	2.852825
51.300000	0.116955	-5.194734	10.960347	2.688807
51.400000	0.120378	-5.566969	10.972120	2.470732
51.500000	0.126346	-5.177980	10.969865	1.687669
51.600000	0.116039	-7.170758	10.958626	0.306612
51.700000	0.127944	-8.506939	10.966552	0.148866
51.800000	0.130074	-5.809799	10.975981	0.082998
51.900000	0.121855	-6.048199	10.960720	-0.020274
52.000000	0.132090	-5.436107	10.965635	0.008146
52.100000	0.130352	-6.030732	10.961649	0.064228
52.200000	0.122264	-6.825497	10.958730	0.015525
52.300000	0.117938	-7.878772	10.969096	0.034623
52.400000	0.113010	-7.594143	10.954742	-0.066281
52.500000	0.124651	-5.300437	10.956681	-0.057726
52.600000	0.121819	-7.156028	10.961788	0.009380
52.700000	0.127465	-5.868600	10.968220	0.013898
