LabVIEW Measurement	
Writer_Version	2
Reader_Version	2
Separator	Tab
Decimal_Separator	.
Multi_Headings	No
X_Columns	One
Time_Pref	Absolute
Operator	trimgus
Date	2022/03/22
Time	13:34:26.243564605712890625
***End_of_Header***	
	
Notes	X values guaranteed valid only for Extensometer Displacement-mm (Mean)				
Channels	4				
Samples	1	1	1	1	
Date	2022/03/22	2022/03/22	2022/03/22	2022/03/22	
Time	13:34:26.243564605712890625	13:34:26.243564605712890625	13:34:26.243564605712890625	13:34:26.2459702491760253906	
Y_Unit_Label	Volts	Volts	Volts	Volts	
X_Dimension	Time	Time	Time	Time	
X0	0.0000000000000000E+0	0.0000000000000000E+0	0.0000000000000000E+0	9.9000000000000005E-2	
Delta_X	0.100000	0.100000	0.100000	0.100000	
***End_of_Header***					
X_Value	Extensometer Displacement-mm (Mean)	Force-N (Mean)	Global Displacement-mm (Mean)	Global Displacement-mm (Mean) 1	Comment
0.000000	0.010004	-1.821085	0.007655	0.070905
0.100000	0.009651	-1.598665	0.004148	0.084152
0.200000	0.011023	2.651297	0.004864	0.070648
0.300000	0.007784	-2.492521	-0.019948	-0.019826
0.400000	-0.002050	-2.007529	-0.005294	0.091498
0.500000	0.000449	-0.618928	-0.012588	-0.006112
0.600000	0.003977	-0.960357	-0.016943	0.038785
0.700000	0.006245	0.333835	-0.023961	-0.077723
0.800000	0.003237	-0.523068	-0.000879	0.000133
0.900000	0.004108	1.004440	-0.004323	-0.113914
1.000000	-0.002301	0.971394	-0.021657	-0.112756
1.100000	-0.006535	-1.599684	-0.006259	-0.047319
1.200000	0.006268	-2.171399	-0.004712	-0.037797
1.300000	0.004666	0.086959	-0.004355	0.060311
1.400000	-0.001830	-0.133070	-0.009704	-0.022204
1.500000	0.000121	3.174648	-0.022661	-0.033506
1.600000	0.002444	4.018862	-0.020018	-0.019722
1.700000	0.006012	6.822844	0.008329	0.126059
1.800000	0.003200	8.682276	0.028525	0.120020
1.900000	-0.001138	11.211044	0.043086	0.179343
2.000000	0.004503	15.196323	0.048288	0.269845
2.100000	0.003308	20.704802	0.100191	0.418910
2.200000	-0.003843	9.218418	0.130039	0.525785
2.300000	-0.008100	6.825968	0.125569	0.511072
2.400000	0.000924	6.828035	0.108449	0.470244
2.500000	0.001590	8.260626	0.139667	0.624825
2.600000	0.001489	6.936781	0.126338	0.579359
2.700000	-0.002524	10.027555	0.133169	0.500408
2.800000	0.008457	9.435532	0.120052	0.360505
2.900000	-0.002221	12.182064	0.103383	0.239589
3.000000	0.003198	22.265017	0.075505	0.114467
3.100000	0.001530	34.873826	0.095085	-0.019586
3.200000	-0.009104	49.616564	0.099528	-0.118724
3.300000	-0.004030	62.810219	0.142179	0.061990
3.400000	-0.001505	75.471356	0.154039	0.174550
3.500000	-0.001652	88.068425	0.193237	0.206434
3.600000	0.002530	102.356795	0.208057	0.316174
3.700000	0.005090	117.116684	0.234256	0.397531
3.800000	0.011667	132.456185	0.269708	0.577138
3.900000	0.006901	146.760013	0.285446	0.713361
4.000000	0.006689	160.492103	0.315972	0.937872
4.100000	-0.002578	172.584524	0.323351	0.896986
4.200000	0.011046	187.570803	0.357900	1.013131
4.300000	0.012119	201.165588	0.369449	0.895555
4.400000	0.008716	221.223580	0.425046	1.059350
4.500000	0.013230	236.583400	0.441007	0.980621
4.600000	0.014688	249.199906	0.472501	1.042045
4.700000	0.017240	267.945496	0.482903	0.962139
4.800000	0.021163	287.912084	0.544566	1.093185
4.900000	0.018006	307.524574	0.553074	1.043639
5.000000	0.010366	322.845414	0.593309	1.092182
5.100000	0.015494	337.747969	0.619559	1.158858
5.200000	0.017972	354.656535	0.642043	1.116815
5.300000	0.015964	369.067548	0.659793	1.143109
5.400000	0.018846	389.833514	0.688377	1.031774
5.500000	0.017415	401.226224	0.725827	1.123367
5.600000	0.017260	413.755139	0.715606	0.956517
5.700000	0.019053	423.740635	0.774225	1.146578
5.800000	0.028342	436.529757	0.795915	0.974375
5.900000	0.021850	454.331251	0.822523	1.072577
6.000000	0.019493	468.807193	0.862793	1.054128
6.100000	0.023620	476.540257	0.862785	0.961735
6.200000	0.021617	492.833467	0.893627	0.984440
6.300000	0.030933	504.510335	0.924610	1.046445
6.400000	0.026968	521.254580	0.949189	1.025479
6.500000	0.029580	539.278722	0.979157	0.988829
6.600000	0.019933	558.304421	0.999141	1.109534
6.700000	0.036212	573.364933	1.059270	1.113547
6.800000	0.028476	585.683018	1.069232	1.093646
6.900000	0.037175	595.882275	1.103448	1.088353
7.000000	0.044745	603.455087	1.147400	1.114924
7.100000	0.059754	609.077120	1.166599	1.199918
7.200000	0.067468	615.302519	1.206688	1.231840
7.300000	0.073735	621.805574	1.223028	1.161102
7.400000	0.083211	628.926347	1.271196	1.268799
7.500000	0.100134	637.616025	1.298800	1.249180
7.600000	0.119682	651.827261	1.336570	1.331596
7.700000	0.126442	656.966984	1.383882	1.286056
7.800000	0.137932	666.058427	1.416316	1.352489
7.900000	0.150380	673.690143	1.457279	1.390155
8.000000	0.171364	683.826190	1.493583	1.366258
8.100000	0.188157	691.641608	1.507313	1.329517
8.200000	0.198348	698.933037	1.546820	1.337039
8.300000	0.218310	705.262989	1.581472	1.408541
8.400000	0.230820	709.214170	1.609657	1.333537
8.500000	0.242297	713.629786	1.647890	1.376620
8.600000	0.261791	722.318820	1.680231	1.349371
8.700000	0.270713	727.133814	1.697208	1.227457
8.800000	0.278406	736.033014	1.730418	1.236285
8.900000	0.299684	740.113018	1.755657	1.178081
9.000000	0.304630	746.345309	1.787322	1.154068
9.100000	0.330174	755.883863	1.842793	1.313883
9.200000	0.334614	760.381707	1.879697	1.305274
9.300000	0.351483	766.943342	1.887772	1.208538
9.400000	0.372186	773.505848	1.930067	1.257965
9.500000	0.376078	777.760626	1.959892	1.226586
9.600000	0.405363	783.121783	1.987902	1.209279
9.700000	0.411427	790.039938	2.002386	1.197831
9.800000	0.418030	799.864847	2.038139	1.207079
9.900000	0.447610	805.286723	2.087751	1.302272
10.000000	0.459710	807.136939	2.130324	1.346236
10.100000	0.470072	808.801847	2.137995	1.168837
10.200000	0.478673	815.009925	2.163328	1.116010
10.300000	0.501832	822.739235	2.185188	1.164277
10.400000	0.514952	829.514355	2.211243	1.103279
10.500000	0.533380	832.950932	2.247615	1.128428
10.600000	0.544842	834.121003	2.298540	1.222699
10.700000	0.556828	843.312655	2.307139	1.202575
10.800000	0.567620	845.305431	2.322046	1.116134
10.900000	0.582455	845.475573	2.358163	1.065492
11.000000	0.588503	853.310689	2.382734	0.991280
11.100000	0.609924	862.092010	2.414817	1.083848
11.200000	0.614891	867.031273	2.437512	1.080715
11.300000	0.642360	869.587857	2.472713	1.130217
11.400000	0.655913	875.690657	2.472449	1.033796
11.500000	0.667902	879.919784	2.494836	0.967617
11.600000	0.681281	884.700516	2.546775	0.970916
11.700000	0.703123	885.049124	2.537635	0.906477
11.800000	0.716204	889.371929	2.565193	0.953863
11.900000	0.722215	893.888379	2.595982	0.942053
12.000000	0.737312	898.366956	2.610409	0.896844
12.100000	0.751923	906.311093	2.648292	0.915657
12.200000	0.779353	913.747245	2.688325	0.983601
12.300000	0.787637	916.109488	2.716366	0.954603
12.400000	0.816436	920.169429	2.751100	1.089435
12.500000	0.830892	923.960036	2.782517	1.133114
12.600000	0.843119	926.791352	2.809377	1.034733
12.700000	0.857835	928.184034	2.823194	1.112916
12.800000	0.870768	929.588185	2.868514	1.199811
12.900000	0.888520	936.048474	2.891167	1.150973
13.000000	0.895377	932.853516	2.893105	1.110347
13.100000	0.906409	921.713654	2.918261	1.074084
13.200000	0.907300	911.462995	2.964806	1.072861
13.300000	0.910422	903.286100	3.006769	1.145762
13.400000	0.910908	901.898113	2.994181	0.966519
13.500000	0.909451	896.325119	3.011105	0.897808
13.600000	0.905611	897.720038	3.003604	0.763858
13.700000	0.907865	898.128606	3.008085	0.733386
13.800000	0.885751	893.723073	3.009354	0.556609
13.900000	0.911879	896.749642	2.996449	0.412600
14.000000	0.858271	893.755515	3.017386	0.494498
14.100000	0.765665	891.427554	3.030727	0.435262
14.200000	0.434207	890.720161	3.031106	0.281535
14.300000	0.195504	888.969255	3.019293	0.049175
14.400000	-0.448777	886.424604	3.025006	0.110588
14.500000	-1.420629	889.351674	3.042591	0.123532
14.600000	-1.553165	886.271999	3.059932	0.224451
14.700000	-2.384489	884.371203	3.030140	0.090553
14.800000	-3.142926	883.510641	3.034242	0.093600
14.900000	-3.193036	884.261349	3.050032	0.214282
15.000000	-3.382006	884.955801	3.036318	0.069885
15.100000	-3.330351	886.065052	3.038010	0.036008
15.200000	-3.271172	880.971459	3.033855	0.007646
15.300000	-3.552632	879.907488	3.047959	0.106781
15.400000	-3.630403	878.988921	3.029134	0.023836
15.500000	-3.950318	881.401436	3.017819	-0.090193
15.600000	-5.494277	879.490887	3.019693	-0.164559
15.700000	-6.234598	876.845103	3.041348	0.040409
15.800000	-6.440054	879.618847	3.029739	-0.010756
15.900000	-6.351497	876.560015	3.027484	-0.085814
16.000000	-5.089441	880.327954	3.021691	-0.059735
16.100000	-1.271185	878.963029	3.037333	-0.009062
16.200000	0.092766	875.551993	3.026577	-0.029593
16.300000	0.946212	875.928968	3.033208	-0.046427
16.400000	2.319916	875.352569	3.031128	0.003733
16.500000	3.335775	874.773984	3.018610	0.004028
16.600000	3.691714	875.703170	3.049536	0.117757
16.700000	3.308748	875.415526	3.038756	-0.013208
16.800000	3.219267	874.740383	3.029269	-0.003158
16.900000	3.141990	875.314642	3.038493	0.042681
17.000000	3.132623	875.764506	3.038594	0.069078
17.100000	3.091118	875.951191	3.033243	-0.014912
17.200000	3.012007	875.985765	3.019234	-0.024421
17.300000	3.001657	875.612047	3.013564	-0.087802
17.400000	3.054184	874.649678	3.033337	0.010954
17.500000	2.970428	875.153918	3.033041	0.053054
17.600000	2.977831	874.780718	3.015028	-0.127111
17.700000	3.069085	874.271407	3.024799	-0.052911
17.800000	2.903509	874.896856	3.031039	-0.002129
17.900000	2.463535	873.537280	3.035333	-0.010493
18.000000	2.517944	874.501442	3.032830	-0.026497
18.100000	2.900664	875.399097	3.031611	-0.000266
18.200000	2.863609	875.136945	3.028522	0.031327
18.300000	2.617268	875.512509	3.024924	0.048320
18.400000	0.503824	874.255659	3.023259	-0.039282
18.500000	-0.374853	872.629635	3.021743	-0.042671
18.600000	-1.729536	873.128380	3.035126	0.073085
18.700000	-1.748157	874.128100	3.033669	0.038508
18.800000	-1.798430	872.492153	3.027552	-0.008055
18.900000	-2.133066	874.412173	3.029694	-0.024371
19.000000	-2.251366	875.095658	3.041068	0.028175
19.100000	-2.138505	874.489502	3.040199	0.033170
19.200000	-2.135616	875.202128	3.040185	0.047367
19.300000	-2.080206	873.376632	3.034167	0.033517
19.400000	-1.590567	873.303957	3.029445	0.025190
19.500000	1.244799	873.653875	3.033472	0.050177
19.600000	1.985428	874.725108	3.037606	0.010584
19.700000	2.253353	873.714174	3.029200	-0.024610
19.800000	2.585529	874.963549	3.033395	0.025717
19.900000	0.100144	873.265776	3.040760	0.047848
20.000000	-0.764367	873.971392	3.039865	-0.008743
20.100000	-0.833909	873.039892	3.040999	0.006143
20.200000	-0.884233	872.154524	3.041384	0.006098
20.300000	-0.678991	874.119463	3.027675	-0.024267
20.400000	-0.512954	873.172228	3.022568	-0.033417
20.500000	0.085786	873.937949	3.040366	0.027421
20.600000	0.273489	872.318373	3.025493	-0.044490
20.700000	0.146167	873.477547	3.054469	0.099169
20.800000	0.037001	872.586414	3.033712	0.004401
20.900000	0.010145	873.916504	3.029918	-0.045356
21.000000	0.004737	870.648955	3.029515	-0.037377
21.100000	-0.013278	871.003234	3.044471	0.006499
21.200000	-0.025489	873.494308	3.035248	-0.025027
21.300000	0.029137	872.488262	3.043018	0.058848
21.400000	0.003034	871.243496	3.031219	0.044754
21.500000	-0.004139	872.811402	3.037525	-0.015405
21.600000	-0.036282	874.442734	3.035609	0.033779
21.700000	0.002664	872.609929	3.031958	-0.080687
21.800000	-0.012124	872.307133	3.040175	0.022298
21.900000	-0.006343	872.551200	3.022844	-0.028952
22.000000	-0.003659	873.379606	3.032141	0.013775
22.100000	-0.010744	873.045319	3.029470	-0.061837
22.200000	-0.004848	872.129333	3.022721	-0.048401
22.300000	-0.009550	871.702594	3.015061	-0.110561
22.400000	-0.013137	872.307196	3.036509	0.016813
22.500000	-0.006115	871.039874	3.026687	-0.040148
22.600000	-0.002578	876.472109	3.007564	-0.102700
22.700000	-0.004285	893.284012	2.996863	-0.139366
22.800000	-0.003669	929.630324	3.004537	-0.142110
22.900000	-0.003771	950.351181	3.041107	0.063307
23.000000	-0.011307	956.742992	3.086141	0.207126
23.100000	-0.007318	964.180886	3.109494	0.317597
23.200000	-0.007360	966.205555	3.130045	0.413683
23.300000	-0.006506	968.929465	3.177308	0.636578
23.400000	-0.005215	967.873355	3.184612	0.579378
23.500000	-0.006019	976.003463	3.216296	0.734174
23.600000	-0.011450	982.735872	3.262792	0.991613
23.700000	-0.000168	989.869201	3.307324	1.212840
23.800000	0.000692	994.802988	3.338663	1.308773
23.900000	-0.005006	992.226987	3.390996	1.383184
24.000000	-0.006032	991.438727	3.402113	1.243780
24.100000	-0.011224	999.643602	3.440264	1.300758
24.200000	-0.009519	1006.625846	3.468020	1.323345
24.300000	-0.006622	1010.576528	3.523998	1.358441
24.400000	-0.003171	1017.114512	3.546131	1.418165
24.500000	-0.008470	1019.810168	3.575716	1.413431
24.600000	-0.011349	1022.566608	3.614560	1.389498
24.700000	-0.010751	1026.653914	3.657585	1.376325
24.800000	-0.008455	1029.759518	3.677252	1.325646
24.900000	-0.008408	1026.845256	3.747893	1.398691
25.000000	-0.010765	1031.871412	3.762284	1.413528
25.100000	-0.009211	1034.580551	3.810468	1.448311
25.200000	-0.010370	1038.200132	3.827978	1.423533
25.300000	-0.011536	1038.386768	3.847219	1.269797
25.400000	-0.010561	1044.952954	3.887320	1.344778
25.500000	-0.011793	1051.918127	3.927226	1.387888
25.600000	1.912030E-5	1057.102348	3.971217	1.383002
25.700000	-0.005303	1058.160869	4.015628	1.420074
25.800000	-0.007157	1059.626515	4.037423	1.413177
25.900000	-0.011624	1066.634861	4.057888	1.211729
26.000000	-0.013693	1068.241683	4.126962	1.434370
26.100000	-0.001491	1070.169914	4.159908	1.378593
26.200000	-0.000115	1074.275010	4.199639	1.458160
26.300000	-0.013931	1080.199488	4.244690	1.556398
26.400000	-0.010145	1080.700451	4.304800	1.634643
26.500000	-0.005905	1081.784238	4.319563	1.538873
26.600000	-0.007013	1086.656190	4.369847	1.582135
26.700000	-0.002163	1095.132920	4.400854	1.504344
26.800000	-0.009072	1095.451118	4.438419	1.571381
26.900000	-0.011800	1094.660627	4.478082	1.663387
27.000000	-0.009649	1096.773704	4.498353	1.456426
27.100000	-0.005531	1102.897461	4.536691	1.479214
27.200000	-0.010528	1102.470836	4.548329	1.372943
27.300000	-0.005462	1105.515870	4.588905	1.355974
27.400000	-0.008954	1106.511025	4.610340	1.205244
27.500000	-0.015400	1110.640944	4.640193	1.256018
27.600000	-0.004620	1116.281909	4.687034	1.236139
27.700000	-0.007365	1118.109220	4.730269	1.298967
27.800000	-0.007742	1120.828318	4.763740	1.290520
27.900000	-0.010107	1122.697394	4.789714	1.215254
28.000000	-0.006747	1122.595083	4.818029	1.259880
28.100000	-0.009371	1125.683868	4.837115	1.179634
28.200000	-0.011994	1130.674718	4.875857	1.284160
28.300000	-0.007516	1130.427266	4.919213	1.294959
28.400000	-0.010531	1137.300245	4.947883	1.322193
28.500000	-0.008744	1143.861678	4.997002	1.409567
28.600000	-0.008979	1144.794984	5.039769	1.386275
28.700000	-0.011701	1138.123508	5.060441	1.299335
28.800000	-0.011158	1142.356031	5.109143	1.353592
28.900000	-0.007552	1144.550586	5.130504	1.342219
29.000000	-0.006836	1149.966261	5.161442	1.345112
29.100000	-0.004015	1149.510447	5.204516	1.441517
29.200000	-0.004359	1155.568430	5.213433	1.332288
29.300000	-0.011855	1161.106507	5.264578	1.358047
29.400000	-0.008092	1160.146543	5.293222	1.357436
29.500000	-0.010683	1158.923056	5.324517	1.282559
29.600000	-0.002405	1162.008843	5.359313	1.262875
29.700000	-0.013956	1163.280325	5.382585	1.256770
29.800000	-0.007720	1165.792501	5.404792	1.164186
29.900000	-0.005140	1171.546391	5.471593	1.343725
30.000000	-0.004487	1169.027271	5.513454	1.372531
30.100000	-0.012396	1174.277664	5.562470	1.411226
30.200000	-0.007058	1169.772855	5.594661	1.494597
30.300000	-0.007936	1166.489578	5.624555	1.413233
30.400000	-0.007282	1170.038300	5.638907	1.360968
30.500000	-0.010699	1179.183637	5.694615	1.454817
30.600000	-0.008760	1178.566781	5.748665	1.521328
30.700000	-0.004207	1181.538601	5.789518	1.604735
30.800000	-0.005472	1186.729149	5.808160	1.585630
30.900000	-0.012918	1186.699300	5.863536	1.532038
31.000000	-0.006172	1186.903106	5.902654	1.537944
31.100000	-0.017285	1187.283869	5.950377	1.525519
31.200000	-0.013035	1188.292006	5.998414	1.578871
31.300000	-0.015634	1190.550782	6.041959	1.640508
31.400000	-0.014149	1192.306287	6.068448	1.687775
31.500000	-0.007133	1191.596794	6.088406	1.546345
31.600000	-0.008479	1190.323193	6.140193	1.540543
31.700000	-0.005975	1194.612427	6.200753	1.616933
31.800000	-0.011723	1193.486004	6.221783	1.618396
31.900000	-0.011044	1196.349808	6.266358	1.587863
32.000000	-0.012071	1199.413351	6.295623	1.550865
32.100000	-0.006843	1199.990005	6.347698	1.553590
32.200000	-0.011124	1200.800498	6.379377	1.500208
32.300000	-0.009865	1202.219591	6.404347	1.428729
32.400000	-0.018191	1200.586933	6.443333	1.465373
32.500000	-0.003968	1202.021924	6.521805	1.702762
32.600000	-0.007489	1204.392378	6.550778	1.616758
32.700000	-0.003480	1203.701377	6.582365	1.500297
32.800000	-0.006672	1204.276449	6.601229	1.492187
32.900000	-0.004215	1206.357016	6.659366	1.540134
33.000000	-0.003571	1212.207579	6.711820	1.629832
33.100000	-0.003479	1211.049360	6.739961	1.546109
33.200000	-0.005226	1208.590640	6.783842	1.595496
33.300000	-0.013218	1207.715379	6.800333	1.553194
33.400000	-0.012073	1210.089653	6.825792	1.505070
33.500000	-0.006813	1211.628139	6.851998	1.304041
33.600000	-0.012890	1211.289730	6.890703	1.340157
33.700000	-0.018837	1209.096611	6.910790	1.277328
33.800000	-0.009123	1214.929163	6.959450	1.416500
33.900000	-0.009130	1215.706842	6.968678	1.217849
34.000000	-0.007728	1217.283149	7.014873	1.191546
34.100000	-0.005496	1215.366626	7.037396	1.169438
34.200000	-0.013870	1215.697337	7.059227	1.079258
34.300000	-0.004911	1215.665828	7.093350	1.154017
34.400000	-0.001957	1216.095123	7.129743	1.198566
34.500000	-0.000270	1215.227995	7.155364	1.187624
34.600000	-0.006363	1220.964386	7.156441	1.040195
34.700000	-0.011792	1223.042434	7.209742	1.181167
34.800000	-0.009840	1225.033600	7.239329	1.096348
34.900000	-0.010830	1224.910813	7.293801	1.275271
35.000000	-0.009931	1224.663241	7.306271	1.153399
35.100000	-0.008565	1224.886338	7.340507	1.185459
35.200000	-0.007616	1225.754902	7.361203	1.189839
35.300000	-0.009648	1223.401910	7.400391	1.198649
35.400000	-0.014872	1221.973137	7.426675	1.167420
35.500000	-0.005555	1227.382283	7.453174	1.175034
35.600000	-0.007327	1226.120986	7.473589	1.242951
35.700000	-0.008428	1226.406316	7.479098	1.062110
35.800000	-0.004077	1228.716803	7.525068	1.120642
35.900000	-0.012148	1230.796829	7.556386	1.035485
36.000000	-0.003041	1230.979264	7.612324	1.197317
36.100000	-0.008223	1232.446042	7.637564	1.171795
36.200000	-0.013014	1229.397834	7.674748	1.232949
36.300000	-0.011466	1229.241020	7.700039	1.179264
36.400000	-0.002533	1228.512186	7.719580	1.146841
36.500000	-0.008158	1231.180138	7.773784	1.250885
36.600000	-0.009361	1229.918467	7.797105	1.279398
36.700000	-0.011179	1231.963690	7.828142	1.373207
36.800000	-0.000923	1233.561709	7.849615	1.266306
36.900000	-0.008855	1233.957437	7.901637	1.357904
37.000000	-0.008166	1232.371508	7.929887	1.248261
37.100000	-0.015422	1233.766553	7.942260	1.197115
37.200000	-0.015179	1232.754298	7.989732	1.236893
37.300000	-0.017993	1231.081605	8.017785	1.246786
37.400000	-0.010295	1233.542902	8.052709	1.311692
37.500000	-0.009178	1236.688018	8.104722	1.302435
37.600000	-0.008819	1236.536513	8.147536	1.370338
37.700000	-0.008284	1236.726955	8.176473	1.364564
37.800000	-0.007745	1235.686135	8.210116	1.423596
37.900000	-0.005361	1236.962697	8.256209	1.387523
38.000000	-0.005855	1235.915440	8.280185	1.378402
38.100000	-0.005224	1239.373055	8.328647	1.521779
38.200000	-0.006765	1235.753272	8.373673	1.503351
38.300000	-0.006731	1235.566916	8.394508	1.479445
38.400000	-0.014557	1237.085177	8.422661	1.455832
38.500000	-0.005977	1235.316783	8.473013	1.448187
38.600000	-0.005979	1232.310178	8.516000	1.447296
38.700000	-0.006661	1235.084616	8.556210	1.493379
38.800000	-0.001785	1234.483161	8.606181	1.549394
38.900000	-0.009862	1235.246606	8.637136	1.498769
39.000000	-0.005498	1238.591878	8.679809	1.573013
39.100000	-0.006017	1237.212324	8.741046	1.612089
39.200000	-0.009462	1236.685401	8.774712	1.576389
39.300000	-0.017237	1237.959502	8.820670	1.672274
39.400000	-0.011649	1235.441919	8.860847	1.728874
39.500000	-0.017588	1233.825787	8.903598	1.686980
39.600000	-0.005814	1232.982537	8.937069	1.655185
39.700000	-0.014546	1236.620856	8.961732	1.588712
39.800000	-0.004083	1235.654616	9.031198	1.677074
39.900000	-0.012904	1233.611268	9.084154	1.758161
40.000000	-0.005004	1228.766142	9.084341	1.584473
40.100000	-0.005145	1230.494089	9.135611	1.554912
40.200000	-0.015930	1229.169046	9.170947	1.559003
40.300000	-0.010899	1224.163375	9.201530	1.497818
40.400000	-0.013139	1221.011469	9.214215	1.379166
40.500000	-0.005576	1220.105489	9.266756	1.439243
40.600000	-0.006225	1216.893670	9.294849	1.401385
40.700000	-0.003896	1212.243643	9.321757	1.425342
40.800000	-0.010388	1209.243914	9.340488	1.211833
40.900000	-0.009729	1199.079757	9.389472	1.194267
41.000000	-0.010857	1190.393139	9.424537	1.338865
41.100000	-0.005831	1180.214773	9.477903	1.347514
41.200000	-0.010967	1167.419427	9.489211	1.253604
41.300000	-0.006820	1153.172339	9.531510	1.292251
41.400000	-0.007649	1140.001994	9.571000	1.407903
41.500000	-0.019582	1123.619978	9.586884	1.252426
41.600000	-0.017323	1106.496897	9.613833	1.259134
41.700000	-0.012547	1083.154004	9.623754	1.183714
41.800000	-0.008088	1069.976999	9.618288	1.096028
41.900000	-0.011848	1060.680658	9.676805	1.130337
42.000000	-0.003360	1037.390476	9.706895	1.114125
42.100000	-0.013935	997.770075	9.719290	0.946580
42.200000	-0.000415	941.652939	9.778603	1.130828
42.300000	-0.014260	736.764119	9.808709	1.093670
42.400000	-0.004161	-6.416626	9.722848	0.613832
42.500000	-0.004278	-8.384578	9.698425	0.445430
42.600000	-0.006762	-6.900205	9.702544	0.346471
42.700000	-0.014204	-8.357652	9.702868	0.315689
42.800000	-0.004075	-8.877664	9.687339	0.273695
42.900000	-0.006591	-6.490825	9.706583	0.125831
43.000000	-0.006050	-8.849899	9.708540	0.005381
43.100000	-0.009424	-8.680593	9.692430	-0.099455
43.200000	-0.011417	-8.415806	9.699639	-0.302263
43.300000	-0.013574	-7.655721	9.700381	-0.421270
43.400000	-0.025489	-8.424471	9.711839	-0.064979
