LabVIEW Measurement	
Writer_Version	2
Reader_Version	2
Separator	Tab
Decimal_Separator	.
Multi_Headings	No
X_Columns	One
Time_Pref	Absolute
Operator	trimgus
Date	2022/03/22
Time	13:24:45.8623361587524414062
***End_of_Header***	
	
Notes	X values guaranteed valid only for Extensometer Displacement-mm (Mean)				
Channels	4				
Samples	1	1	1	1	
Date	2022/03/22	2022/03/22	2022/03/22	2022/03/22	
Time	13:24:45.8623361587524414062	13:24:45.8623361587524414062	13:24:45.8623361587524414062	13:24:45.8633055686950683594	
Y_Unit_Label	Volts	Volts	Volts	Volts	
X_Dimension	Time	Time	Time	Time	
X0	0.0000000000000000E+0	0.0000000000000000E+0	0.0000000000000000E+0	9.9000000000000005E-2	
Delta_X	0.100000	0.100000	0.100000	0.100000	
***End_of_Header***					
X_Value	Extensometer Displacement-mm (Mean)	Force-N (Mean)	Global Displacement-mm (Mean)	Global Displacement-mm (Mean) 1	Comment
0.000000	0.002523	0.336331	0.002505	0.048274
0.100000	0.001149	-0.577390	0.003615	0.052520
0.200000	-0.000732	-0.291742	-0.008090	-0.009266
0.300000	-0.001868	0.434411	0.007278	-0.032166
0.400000	-0.000544	-0.575154	-0.010493	-0.069765
0.500000	-0.002832	-0.187470	-0.002944	-0.053007
0.600000	-0.000456	1.248985	0.012544	0.094142
0.700000	0.000265	1.305731	0.004787	0.039277
0.800000	-0.004464	4.217536	-0.001863	-0.045099
0.900000	-0.001068	8.126089	-0.005314	0.028725
1.000000	0.001344	10.691379	0.026869	0.091840
1.100000	0.002121	8.699603	0.040140	0.136978
1.200000	0.011019	9.637177	0.061684	0.273658
1.300000	0.010195	11.509601	0.083838	0.304179
1.400000	0.000223	10.633218	0.128039	0.537209
1.500000	0.004974	11.428636	0.160433	0.626709
1.600000	0.001645	12.751499	0.194191	0.711152
1.700000	0.002621	20.104744	0.213016	0.819762
1.800000	0.006947	25.123908	0.259625	1.012259
1.900000	0.012623	24.973256	0.305363	1.225326
2.000000	-0.000448	13.017211	0.337817	1.218509
2.100000	0.008120	13.444360	0.329895	1.141906
2.200000	-0.001218	13.210190	0.336073	1.075271
2.300000	0.003205	12.929298	0.342622	1.024225
2.400000	0.012178	15.999309	0.318204	0.751417
2.500000	0.005789	15.994244	0.331453	0.682306
2.600000	0.011424	25.770476	0.325156	0.514409
2.700000	-0.002368	36.084386	0.365515	0.586470
2.800000	-0.004443	42.289260	0.445417	0.738327
2.900000	-0.000432	47.068469	0.488449	0.721274
3.000000	-0.009217	50.848567	0.521789	0.718358
3.100000	0.000492	51.777919	0.586572	0.998028
3.200000	0.000231	57.396407	0.622675	1.128977
3.300000	0.011244	59.144102	0.666325	1.260818
3.400000	0.003104	61.041788	0.708863	1.528628
3.500000	0.003061	46.038023	0.766356	1.697957
3.600000	0.003810	39.759228	0.802750	1.874958
3.700000	-0.007086	37.195937	0.848948	1.901589
3.800000	-0.010719	38.172298	0.884638	1.726726
3.900000	-0.000364	38.342395	0.935774	1.749455
4.000000	-0.002178	40.623621	0.962955	1.742962
4.100000	-0.002249	42.242502	1.000809	1.632328
4.200000	0.009264	39.873430	1.039096	1.629129
4.300000	0.000580	42.145101	1.082268	1.640090
4.400000	-0.006838	42.588116	1.117408	1.603046
4.500000	-0.012207	41.482542	1.147585	1.503783
4.600000	-0.016220	48.629294	1.191920	1.528472
4.700000	-0.006397	52.559810	1.219446	1.457030
4.800000	-0.001078	61.311311	1.264437	1.503306
4.900000	-0.005884	68.839004	1.270850	1.310946
5.000000	0.000579	77.203195	1.303365	1.341903
5.100000	0.001649	82.361889	1.349293	1.363236
5.200000	0.012030	87.463758	1.395686	1.402615
5.300000	0.005473	95.179373	1.431832	1.379082
5.400000	-0.003630	105.454034	1.475612	1.401550
5.500000	-0.002852	116.227506	1.508701	1.416418
5.600000	0.000180	71.948490	1.530857	1.336949
5.700000	-0.002915	44.692128	1.555586	1.321278
5.800000	0.001730	53.799747	1.586578	1.258885
5.900000	0.005026	64.764159	1.640337	1.458727
6.000000	0.006803	80.884591	1.688696	1.505893
6.100000	0.010381	87.073003	1.721076	1.459857
6.200000	0.004096	94.324678	1.748542	1.395345
6.300000	0.003521	101.580485	1.769361	1.316939
6.400000	0.002526	113.243763	1.817489	1.352472
6.500000	0.011407	120.283046	1.834309	1.282473
6.600000	0.012317	128.714935	1.867011	1.315522
6.700000	0.015996	136.708572	1.924595	1.447060
6.800000	0.011915	150.092470	1.947437	1.419899
6.900000	0.019543	164.368028	1.958774	1.255251
7.000000	0.014764	177.792712	2.000767	1.227415
7.100000	0.009992	193.597144	2.054452	1.308507
7.200000	0.004686	204.954534	2.080919	1.300039
7.300000	0.012053	219.288073	2.127641	1.414206
7.400000	0.014662	232.432261	2.165694	1.365606
7.500000	0.011737	244.491592	2.205781	1.455043
7.600000	0.013704	256.509997	2.240416	1.470554
7.700000	0.018505	272.563529	2.289427	1.429952
7.800000	0.015531	290.457213	2.322609	1.474529
7.900000	0.017474	303.583308	2.357452	1.560017
8.000000	0.014443	313.793344	2.377902	1.485239
8.100000	0.015273	331.312258	2.418922	1.437915
8.200000	0.021297	351.703398	2.462471	1.497504
8.300000	0.007408	364.652252	2.490693	1.427676
8.400000	0.018521	377.483582	2.527978	1.422214
8.500000	0.020931	389.995997	2.556704	1.382210
8.600000	0.014515	403.361432	2.574741	1.315562
8.700000	0.016993	417.571129	2.623132	1.313525
8.800000	0.017961	431.625363	2.643288	1.262643
8.900000	0.018918	447.062088	2.693319	1.311193
9.000000	0.026978	456.341884	2.711442	1.317612
9.100000	0.028137	469.293599	2.705356	1.126107
9.200000	0.025974	481.791311	2.750980	1.129968
9.300000	0.025168	499.602666	2.802692	1.220282
9.400000	0.020115	513.956197	2.842913	1.247537
9.500000	0.023262	530.248061	2.865682	1.211009
9.600000	0.028556	540.991657	2.902019	1.280525
9.700000	0.033703	556.583249	2.931012	1.215519
9.800000	0.025870	560.663099	2.949162	1.200663
9.900000	0.033611	558.964589	2.937360	0.972653
10.000000	0.035212	554.355701	2.958090	0.964712
10.100000	0.038879	554.053679	2.960369	0.997930
10.200000	0.030168	550.567628	2.986521	0.938735
10.300000	0.027722	547.609773	2.988271	0.739869
10.400000	0.024719	548.290309	3.000275	0.614375
10.500000	0.035987	549.336170	2.987449	0.484220
10.600000	0.023572	548.235452	2.983254	0.318483
10.700000	0.040161	545.635576	2.997286	0.270248
10.800000	0.030869	545.519271	2.989486	0.161476
10.900000	0.026326	544.054807	3.007134	0.264250
11.000000	0.023416	543.185181	2.999478	0.169439
11.100000	0.031742	542.399907	3.000062	0.159716
11.200000	0.031639	542.431876	2.989087	0.011252
11.300000	-0.004185	543.195394	3.007702	0.069796
11.400000	-0.068098	540.759640	3.018958	0.075364
11.500000	-0.172709	541.848641	3.005012	0.065260
11.600000	-0.465610	539.729077	3.020664	0.153026
11.700000	-2.183387	537.959644	3.019874	0.088706
11.800000	-2.487296	538.129718	3.014588	0.100808
11.900000	-2.637606	537.194779	3.016843	0.043891
12.000000	-2.912355	539.129212	3.013290	0.042126
12.100000	-3.705222	537.113246	3.026842	0.109641
12.200000	-4.575873	539.034686	3.026608	0.146168
12.300000	-5.092735	537.133059	3.011986	0.023119
12.400000	-4.872291	537.316571	3.026526	0.030041
12.500000	-3.293544	534.987301	3.015438	0.039357
12.600000	-1.392487	534.303400	3.024314	0.014546
12.700000	-0.518201	536.185520	3.023944	0.008023
12.800000	-0.174383	536.892326	3.027347	0.053078
12.900000	-0.099023	535.486817	3.034359	0.065543
13.000000	-0.076436	536.406542	3.024670	0.056014
13.100000	-0.280229	535.628259	3.021159	-0.027554
13.200000	-0.407105	533.291794	3.022119	-0.018444
13.300000	-0.534333	535.939848	3.018957	0.026093
13.400000	-0.540730	535.908481	3.005771	-0.078699
13.500000	-0.533773	533.562856	3.045488	0.112775
13.600000	-0.716711	531.228368	3.025009	0.007897
13.700000	-0.846074	534.520240	3.015747	-0.028259
13.800000	-0.899632	534.912953	3.016957	-0.044347
13.900000	-1.073463	533.097373	3.033617	-0.003419
14.000000	-1.279415	530.871940	3.018968	-0.020143
14.100000	-1.297117	530.408945	3.036077	0.056409
14.200000	-1.599051	533.972593	3.028523	0.025684
14.300000	-1.946471	531.924908	3.032242	0.054331
14.400000	-1.932202	531.192350	3.033084	0.101289
14.500000	-1.865628	533.294135	3.037024	-0.028552
14.600000	-1.878181	533.638129	3.038813	0.052745
14.700000	-1.777295	534.434292	3.017787	0.007178
14.800000	-1.710440	530.843236	3.028794	0.046558
14.900000	-1.690779	533.401900	3.025956	-0.024902
15.000000	-1.625684	533.268268	3.019723	-0.010306
15.100000	-1.415433	534.520354	3.025588	-0.033902
15.200000	-1.084734	533.756865	3.019143	-0.035366
15.300000	-0.904009	531.784932	3.031597	-0.006637
15.400000	-1.082165	531.722913	3.032409	0.006804
15.500000	-1.249570	533.060227	3.040938	0.013388
15.600000	-1.286449	533.642640	3.016214	-0.095105
15.700000	-1.329884	531.770770	3.021327	0.020326
15.800000	-1.298349	533.482471	3.011519	-0.067623
15.900000	-1.308931	531.815268	3.025288	-0.005273
16.000000	-1.339493	531.860239	3.028216	0.038786
16.100000	-1.390473	532.340593	3.014435	-0.046205
16.200000	-1.417600	531.839621	3.026274	0.026792
16.300000	-1.374321	531.471633	3.029352	-0.011823
16.400000	-1.356108	532.123261	3.021921	-0.042926
16.500000	-1.277145	530.529098	3.038466	-0.007960
16.600000	-1.205012	531.284012	3.032949	0.063736
16.700000	-1.296111	532.564066	3.034551	0.047680
16.800000	-1.522663	529.711353	3.032767	0.081691
16.900000	-1.578274	530.204999	3.027157	0.013715
17.000000	-4.698861	530.783988	3.019690	-0.034479
17.100000	-5.740569	531.532412	3.030022	0.064854
17.200000	-1.515539	529.509865	3.020093	-0.028627
17.300000	-1.733471	531.561695	3.026110	-0.004622
17.400000	-0.564661	531.699256	3.017035	-0.018209
17.500000	1.079835	528.157497	3.035123	-0.016558
17.600000	2.477766	532.337737	3.031623	-0.009571
17.700000	2.718085	530.348327	3.021835	-0.043385
17.800000	3.164851	531.385914	3.021551	-0.040169
17.900000	3.570894	529.414167	3.016653	-0.045061
18.000000	3.774313	529.774111	3.036983	0.063622
18.100000	3.196296	529.679680	3.031429	0.001792
18.200000	2.817190	529.064805	3.028777	0.038793
18.300000	2.728687	528.310231	3.028786	0.006036
18.400000	2.611859	530.357836	3.031536	0.060750
18.500000	2.590634	530.128095	3.027921	-0.028043
18.600000	2.562396	531.422708	3.023087	-0.029798
18.700000	2.584856	533.615776	3.043932	0.083792
18.800000	2.609652	529.165956	3.019719	-0.005489
18.900000	2.666332	530.787610	3.015249	-0.009891
19.000000	2.672907	532.224471	3.022828	-0.051372
19.100000	2.657305	531.119974	3.027853	-0.015514
19.200000	2.573739	530.930600	3.026992	-0.009900
19.300000	2.535005	529.916515	3.032132	0.016520
19.400000	2.470822	530.390989	3.020174	-0.048845
19.500000	1.971490	530.407247	3.016056	-0.044387
19.600000	1.511592	527.578912	3.030541	0.035705
19.700000	1.510690	528.866193	3.026214	-0.073681
19.800000	1.940675	531.298682	3.003819	-0.068088
19.900000	2.031862	530.243711	3.037928	0.092394
20.000000	2.042889	530.301991	3.025654	0.010770
20.100000	1.996595	529.069499	3.027397	-0.002548
20.200000	2.059342	528.514411	3.030272	0.011663
20.300000	2.033778	531.747884	3.022775	-0.031081
20.400000	1.885139	529.645500	3.023237	0.008411
20.500000	1.313130	530.923417	3.030023	0.056780
20.600000	0.043061	528.957478	3.030584	-0.005948
20.700000	0.318500	529.315219	3.036239	0.044114
20.800000	0.293054	527.939466	3.032298	0.110994
20.900000	0.280615	528.541287	3.022990	-0.060117
21.000000	0.254065	531.014691	3.027327	0.009014
21.100000	0.165743	531.542846	3.021145	-0.016945
21.200000	0.130455	532.020826	3.023773	-0.029194
21.300000	0.091901	527.369243	3.026587	0.005538
21.400000	0.101583	529.990741	3.036785	0.057762
21.500000	0.090641	528.492617	3.042033	0.047207
21.600000	0.092467	530.009558	3.019506	-0.042664
21.700000	0.066898	529.685497	3.031475	-0.023311
21.800000	0.099130	527.718668	3.024728	-0.027214
21.900000	0.086145	526.645608	3.018653	-0.011748
22.000000	0.133835	530.044738	3.018161	-0.037661
22.100000	0.109216	531.075729	3.020937	-0.008261
22.200000	0.080592	531.492187	3.039615	0.067292
22.300000	0.089458	528.532791	3.030014	0.018068
22.400000	0.114547	528.790220	3.046622	0.037242
22.500000	0.114551	529.495224	3.031176	-0.044836
22.600000	0.088426	527.045057	3.039748	0.085579
22.700000	0.098225	528.817548	3.022188	-0.041311
22.800000	0.049160	529.392826	3.025978	0.003164
22.900000	0.049254	531.186551	3.020115	0.002662
23.000000	0.051787	529.664497	3.021014	0.013470
23.100000	0.048988	530.701216	3.029872	0.039346
23.200000	0.085188	530.851015	3.029937	-0.041738
23.300000	0.063284	530.261664	3.031008	0.001273
23.400000	0.064052	528.014197	3.026391	-0.078965
23.500000	0.066451	528.732187	3.030810	0.000559
23.600000	0.064067	531.018666	3.032555	-0.028524
23.700000	0.060518	530.159034	3.027067	0.022842
23.800000	0.066674	529.487242	3.016098	-0.041265
23.900000	0.067316	528.748666	3.029169	0.034861
24.000000	0.074093	529.787580	3.015625	-0.017609
24.100000	0.061191	529.261754	3.027651	-0.011946
24.200000	0.064996	529.132893	3.026783	-0.010423
24.300000	0.061008	536.249792	3.013204	-0.072182
24.400000	0.059413	559.442145	3.020870	-0.020427
24.500000	0.066978	579.425627	3.054807	0.091269
24.600000	0.057616	607.750703	3.090793	0.225058
24.700000	0.066443	634.353604	3.129253	0.398479
24.800000	0.060833	655.401861	3.173329	0.604494
24.900000	0.058241	669.098982	3.219632	0.744104
25.000000	0.057711	669.706873	3.243114	0.887271
25.100000	0.066706	672.033172	3.272727	0.959093
25.200000	0.060042	676.209099	3.306828	1.097145
25.300000	0.064784	683.105113	3.333537	1.253730
25.400000	0.070772	689.940161	3.359637	1.331084
25.500000	0.073083	701.189367	3.379470	1.273817
25.600000	0.065071	709.317455	3.420842	1.294290
25.700000	0.063156	715.448263	3.481944	1.376787
25.800000	0.064903	722.035618	3.519159	1.371287
25.900000	0.066754	726.664139	3.532986	1.233290
26.000000	0.068147	722.563351	3.565811	1.269827
26.100000	0.059925	726.842217	3.575768	1.195863
26.200000	0.066720	735.413984	3.585317	1.090731
26.300000	0.069752	741.879223	3.612899	1.099373
26.400000	0.058633	751.523226	3.631452	1.067064
26.500000	0.065262	759.586967	3.650970	1.072234
26.600000	0.063847	769.174150	3.695927	1.078674
26.700000	0.064127	779.328759	3.701706	0.867558
26.800000	0.065685	785.267176	3.752629	0.918651
26.900000	0.063847	792.857099	3.795387	1.023988
27.000000	0.065550	791.109327	3.835798	1.056151
27.100000	0.060885	785.245754	3.841471	1.049312
27.200000	0.064933	785.738571	3.828522	0.964214
27.300000	0.062380	790.731272	3.862329	0.977504
27.400000	0.063988	808.664680	3.881678	0.982886
27.500000	0.066281	816.255343	3.928367	1.076441
27.600000	0.061373	824.058712	3.949783	1.001464
27.700000	0.062158	834.955934	3.989743	1.130717
27.800000	0.062977	845.946751	4.056415	1.199796
27.900000	0.060498	851.201439	4.095750	1.180269
28.000000	0.062362	854.176423	4.118813	1.112698
28.100000	0.068868	858.522981	4.154872	1.222765
28.200000	0.067864	866.919382	4.179141	1.369960
28.300000	0.054706	872.674057	4.237100	1.466030
28.400000	0.063298	879.841990	4.277212	1.548226
28.500000	0.069566	888.272758	4.308098	1.503916
28.600000	0.059778	890.729839	4.343588	1.545019
28.700000	0.066020	893.354749	4.384692	1.561734
28.800000	0.065523	901.074693	4.401054	1.348765
28.900000	0.065927	908.363295	4.437405	1.340737
29.000000	0.062145	910.792700	4.483499	1.433526
29.100000	0.060369	918.562404	4.516873	1.422226
29.200000	0.060348	925.027792	4.539414	1.417571
29.300000	0.063545	934.432550	4.596431	1.416860
29.400000	0.076129	939.002023	4.641174	1.427378
29.500000	0.064557	940.466452	4.653402	1.356295
29.600000	0.066974	944.498007	4.704150	1.415060
29.700000	0.062203	952.136643	4.735117	1.373817
29.800000	0.064519	961.500394	4.770531	1.452659
29.900000	0.070708	964.950179	4.821582	1.507234
30.000000	0.060125	964.276180	4.829868	1.365212
30.100000	0.054434	971.197377	4.885702	1.446937
30.200000	0.068288	974.809116	4.916036	1.477985
30.300000	0.063828	982.712199	4.953870	1.409527
30.400000	0.063760	988.829507	4.993001	1.383963
30.500000	0.060338	989.835841	5.013245	1.412229
30.600000	0.067262	993.761466	5.049850	1.357911
30.700000	0.060653	999.187439	5.074454	1.342209
30.800000	0.060271	1003.950056	5.094785	1.269687
30.900000	0.064307	1006.015188	5.126476	1.200280
31.000000	0.061158	1008.233817	5.146117	1.249076
31.100000	0.063327	1011.741083	5.198097	1.219590
31.200000	0.068015	1017.629208	5.229664	1.237683
31.300000	0.066174	1022.635344	5.263708	1.213052
31.400000	0.065497	1026.842311	5.288754	1.164805
31.500000	0.059754	1032.323385	5.328495	1.232197
31.600000	0.065841	1038.541664	5.375613	1.288349
31.700000	0.067707	1039.780342	5.408126	1.296753
31.800000	0.069289	1042.173225	5.448219	1.391285
31.900000	0.063541	1049.914532	5.471108	1.358303
32.000000	0.064047	1056.231527	5.507418	1.408992
32.100000	0.064532	1058.547952	5.541307	1.354831
32.200000	0.067092	1058.862246	5.567394	1.330539
32.300000	0.066478	1066.110009	5.588838	1.278586
32.400000	0.067792	1071.092923	5.618544	1.292475
32.500000	0.071989	1079.898509	5.661449	1.310612
32.600000	0.071573	1082.809800	5.695304	1.256835
32.700000	0.066053	1086.735116	5.716020	1.214981
32.800000	0.060851	1091.548859	5.747905	1.181106
32.900000	0.065230	1090.330101	5.795539	1.271067
33.000000	0.069812	1090.014140	5.814610	1.208519
33.100000	0.070659	1096.311861	5.824771	1.117872
33.200000	0.069838	1101.293588	5.880341	1.217308
33.300000	0.068591	1113.112651	5.907427	1.250820
33.400000	0.063206	1113.421844	5.948664	1.303684
33.500000	0.067165	1110.922350	5.980703	1.259192
33.600000	0.057164	1111.642396	6.011861	1.238539
33.700000	0.058845	1116.361334	6.043497	1.289842
33.800000	0.067514	1125.177246	6.079257	1.296216
33.900000	0.076183	1124.620143	6.122737	1.280054
34.000000	0.064670	1122.647129	6.171113	1.405552
34.100000	0.067443	1125.641061	6.181387	1.404601
34.200000	0.069090	1127.236387	6.209268	1.296820
34.300000	0.073490	1131.010037	6.232184	1.274540
34.400000	0.063180	1133.911629	6.258433	1.215009
34.500000	0.061441	1132.614685	6.274646	1.154904
34.600000	0.065102	1138.379405	6.298703	1.131024
34.700000	0.066435	1143.420584	6.333036	1.133885
34.800000	0.066196	1148.798352	6.383674	1.194949
34.900000	0.067347	1152.792341	6.410022	1.134098
35.000000	0.072164	1155.547639	6.436209	1.041440
35.100000	0.067853	1157.086816	6.466309	1.116623
35.200000	0.066527	1158.147607	6.497263	1.127650
35.300000	0.065648	1163.432035	6.519165	1.129667
35.400000	0.063598	1166.833861	6.564657	1.209771
35.500000	0.062623	1166.911067	6.583487	1.205326
35.600000	0.065211	1161.978511	6.597405	1.172190
35.700000	0.066679	1164.649288	6.635079	1.193708
35.800000	0.069543	1168.089530	6.673702	1.136962
35.900000	0.072889	1169.706711	6.713885	1.192833
36.000000	0.059275	1171.298451	6.723666	1.136698
36.100000	0.066431	1172.310212	6.741001	1.077358
36.200000	0.064385	1176.001620	6.780917	1.113332
36.300000	0.068896	1180.630321	6.814226	1.164386
36.400000	0.061234	1180.068695	6.828464	1.030005
36.500000	0.066763	1185.547316	6.866547	1.116674
36.600000	0.067685	1184.331136	6.880975	1.118964
36.700000	0.069087	1190.740279	6.917298	1.103159
36.800000	0.071199	1190.285237	6.984599	1.222566
36.900000	0.068713	1189.808418	6.990918	1.089435
37.000000	0.060332	1193.437793	7.013038	1.126333
37.100000	0.066133	1193.306229	7.055740	1.247217
37.200000	0.076905	1193.059165	7.074729	1.150293
37.300000	0.065563	1190.330047	7.118244	1.192550
37.400000	0.067035	1190.712523	7.136244	1.210841
37.500000	0.066924	1197.429246	7.144941	1.097807
37.600000	0.068231	1199.963945	7.191178	1.209583
37.700000	0.061421	1204.879348	7.210849	1.152611
37.800000	0.070478	1201.093313	7.268679	1.121481
37.900000	0.065632	1203.671058	7.295162	1.198513
38.000000	0.063483	1207.647393	7.316020	1.186942
38.100000	0.075457	1214.099025	7.351484	1.157025
38.200000	0.063924	1210.798053	7.383684	1.221706
38.300000	0.062486	1208.204556	7.386502	1.055942
38.400000	0.067720	1212.102664	7.422385	1.124746
38.500000	0.059834	1215.167150	7.451551	1.199157
38.600000	0.064740	1219.115892	7.487236	1.160495
38.700000	0.069567	1219.024223	7.503766	1.159662
38.800000	0.069709	1216.062111	7.521802	1.003245
38.900000	0.066745	1220.059587	7.550952	0.998192
39.000000	0.062594	1221.403392	7.558387	0.958439
39.100000	0.053143	1221.159358	7.609647	1.004753
39.200000	0.068592	1223.740382	7.639374	1.001647
39.300000	0.061994	1225.124514	7.654491	1.063021
39.400000	0.066631	1232.365507	7.677410	0.996017
39.500000	0.066772	1233.573097	7.720949	1.057923
39.600000	0.070157	1228.906082	7.745484	1.020364
39.700000	0.064117	1229.615926	7.759684	1.004848
39.800000	0.068110	1235.144088	7.775282	0.987269
39.900000	0.066322	1238.778944	7.845765	1.162164
40.000000	0.060291	1236.984632	7.854462	1.159718
40.100000	0.066459	1239.363688	7.913922	1.196881
40.200000	0.066137	1241.143231	7.931740	1.152746
40.300000	0.065674	1246.470075	7.974393	1.239525
40.400000	0.065089	1248.775192	8.009401	1.310393
40.500000	0.065546	1247.131102	8.023097	1.198657
40.600000	0.064763	1249.882230	8.052675	1.205576
40.700000	0.062666	1252.807769	8.110838	1.361935
40.800000	0.062457	1255.994352	8.162332	1.525843
40.900000	0.064329	1250.944684	8.166353	1.263296
41.000000	0.067280	1250.700145	8.207599	1.389472
41.100000	0.067134	1251.103875	8.228441	1.239526
41.200000	0.067235	1251.598184	8.234412	1.193350
41.300000	0.064877	1257.842744	8.265988	1.147137
41.400000	0.068671	1264.863784	8.306412	1.161845
41.500000	0.059154	1261.371042	8.343937	1.255165
41.600000	0.071402	1262.021339	8.389837	1.327745
41.700000	0.063584	1256.884156	8.404945	1.164662
41.800000	0.069281	1256.696618	8.420823	1.015372
41.900000	0.069284	1258.012356	8.430775	1.037975
42.000000	0.065123	1261.631087	8.440805	0.921410
42.100000	0.070625	1259.174849	8.471168	0.951277
42.200000	0.066298	1263.906031	8.501030	1.037470
42.300000	0.068231	1262.891252	8.523364	1.020650
42.400000	0.067253	1266.386671	8.546151	0.943972
42.500000	0.072593	1267.061450	8.583851	0.939875
42.600000	0.062803	1267.578312	8.603016	0.838297
42.700000	0.065793	1270.841949	8.656094	0.990670
42.800000	0.075560	1271.677089	8.661988	0.937016
42.900000	0.069973	1273.805588	8.705670	1.085097
43.000000	0.063865	1275.888630	8.758214	1.236679
43.100000	0.064619	1272.631897	8.775301	1.201856
43.200000	0.068190	1273.633727	8.785137	1.114447
43.300000	0.069523	1273.694317	8.842358	1.250582
43.400000	0.073280	1280.738885	8.864866	1.252237
43.500000	0.055012	1281.933098	8.907524	1.275027
43.600000	0.069262	1278.501641	8.943087	1.332454
43.700000	0.065952	1276.680262	8.974118	1.244492
43.800000	0.065060	1280.212463	9.010539	1.383117
43.900000	0.072376	1278.560518	9.042976	1.316197
44.000000	0.072195	1278.715873	9.090989	1.308771
44.100000	0.065280	1278.410448	9.118392	1.341840
44.200000	0.065266	1278.828373	9.162793	1.487740
44.300000	0.062440	1279.866865	9.179210	1.321177
44.400000	0.060162	1285.900395	9.220767	1.402568
44.500000	0.058077	1284.086928	9.259435	1.380415
44.600000	0.071126	1282.209211	9.292516	1.373627
44.700000	0.063655	1282.843233	9.316033	1.345214
44.800000	0.063011	1284.010592	9.364248	1.387241
44.900000	0.062834	1286.727186	9.400029	1.403515
45.000000	0.062260	1285.376670	9.429221	1.331504
45.100000	0.065524	1285.062432	9.454192	1.316130
45.200000	0.060180	1286.576525	9.473625	1.228818
45.300000	0.066343	1287.982065	9.516087	1.318540
45.400000	0.068656	1290.004748	9.582128	1.416303
45.500000	0.063319	1289.072705	9.644046	1.505183
45.600000	0.073381	1286.936512	9.665803	1.469077
45.700000	0.065145	1286.252193	9.703459	1.526296
45.800000	0.070991	1283.717111	9.733535	1.443346
45.900000	0.066515	1281.088650	9.770261	1.459492
46.000000	0.060696	1283.067689	9.807091	1.482849
46.100000	0.060966	1282.746867	9.833596	1.498064
46.200000	0.064402	1283.746910	9.883328	1.592475
46.300000	0.064624	1284.619642	9.928733	1.631826
46.400000	0.068730	1284.705558	9.965339	1.507890
46.500000	0.062874	1279.931841	10.004858	1.421620
46.600000	0.063104	1281.273946	10.041973	1.469596
46.700000	0.071254	1278.579232	10.094123	1.536622
46.800000	0.054267	1276.125351	10.135466	1.582284
46.900000	0.063677	1268.117725	10.172802	1.580481
47.000000	0.061447	1259.680625	10.193285	1.518631
47.100000	0.070073	1256.660408	10.205792	1.459222
47.200000	0.063837	1257.844276	10.253507	1.464084
47.300000	0.065792	1253.693680	10.284488	1.396999
47.400000	0.061538	1245.473002	10.349029	1.501176
47.500000	0.067526	1231.131456	10.365153	1.413326
47.600000	0.066527	1217.641736	10.394411	1.396984
47.700000	0.065695	1204.453047	10.417265	1.267726
47.800000	0.064821	1186.734386	10.452559	1.249058
47.900000	0.060589	1170.104236	10.471732	1.173375
48.000000	0.060609	1151.173433	10.493848	1.184094
48.100000	0.073197	1135.732985	10.525830	1.257371
48.200000	0.061022	1117.859227	10.532385	1.093823
48.300000	0.059698	1097.558059	10.573700	1.136715
48.400000	0.069734	1068.557738	10.605671	1.016736
48.500000	0.060691	1027.602174	10.643145	1.092856
48.600000	0.068593	975.232141	10.676043	1.100658
48.700000	0.065363	895.634935	10.692215	1.081298
48.800000	0.065349	236.269250	10.639490	0.757063
48.900000	0.071778	-2.182776	10.590989	0.469609
49.000000	0.075957	-0.606012	10.587895	0.363495
49.100000	0.066732	-1.625155	10.588798	0.252092
49.200000	0.070156	-0.988213	10.582376	0.208830
49.300000	0.067518	-1.295752	10.573012	-0.000729
49.400000	0.073485	-0.878799	10.591233	-0.055090
49.500000	0.066422	0.259555	10.597434	-0.168406
49.600000	0.067162	-0.950498	10.591280	-0.332688
49.700000	0.064528	-2.001895	10.594642	-0.376697
49.800000	0.066149	-1.253251	10.584384	-0.240322
49.900000	0.069388	-1.485515	10.594432	0.020468
50.000000	0.062350	-0.091227	10.600103	0.047819
50.100000	0.071316	-1.877461	10.602392	0.051717
50.200000	0.073306	0.284611	10.602166	0.076872
50.300000	0.071187	0.488557	10.594390	0.084417
50.400000	0.068612	-0.684314	10.577829	-0.045881
