LabVIEW Measurement	
Writer_Version	2
Reader_Version	2
Separator	Tab
Decimal_Separator	.
Multi_Headings	No
X_Columns	One
Time_Pref	Absolute
Operator	tlstroud
Date	2022/03/22
Time	13:51:19.5287613868713378906
***End_of_Header***	
	
Notes	X values guaranteed valid only for Extensometer Displacement-mm (Mean)				
Channels	4				
Samples	1	1	1	1	
Date	2022/03/22	2022/03/22	2022/03/22	2022/03/22	
Time	13:51:19.5287613868713378906	13:51:19.5287613868713378906	13:51:19.5287613868713378906	13:51:19.5293951034545898438	
Y_Unit_Label	Volts	Volts	Volts	Volts	
X_Dimension	Time	Time	Time	Time	
X0	0.0000000000000000E+0	0.0000000000000000E+0	0.0000000000000000E+0	9.9000000000000005E-2	
Delta_X	0.100000	0.100000	0.100000	0.100000	
***End_of_Header***					
X_Value	Extensometer Displacement-mm (Mean)	Force-N (Mean)	Global Displacement-mm (Mean)	Global Displacement-mm (Mean) 1	Comment
0.000000	0.011262	-0.805019	0.010548	0.019546
0.100000	0.010503	-1.207878	0.011631	0.033205
0.200000	0.002775	3.122280	0.013468	-0.015162
0.300000	0.010322	-1.367248	-0.002259	-0.046619
0.400000	3.814831E-5	0.044407	0.000643	-0.015274
0.500000	0.003240	1.698660	-0.001742	0.021978
0.600000	-0.001602	-2.126380	0.000437	0.040883
0.700000	0.004417	-3.363822	-0.003142	-0.014662
0.800000	0.009239	-0.340656	0.008792	0.018824
0.900000	0.002980	2.251111	-0.002939	-0.056022
1.000000	0.006789	1.112018	0.016250	0.019133
1.100000	0.006904	-0.196475	0.006857	-0.015079
1.200000	-0.000285	-0.388150	-0.011093	-0.074930
1.300000	0.003375	0.498232	0.005872	0.023100
1.400000	0.001508	0.778027	0.010624	0.030891
1.500000	0.005911	-1.366231	0.024436	0.074225
1.600000	-5.621093E-5	0.801978	-0.006978	-0.020820
1.700000	0.012720	0.643500	0.005402	0.026207
1.800000	0.012417	0.902073	0.003903	-0.014106
1.900000	0.001527	4.401391	0.009916	0.041351
2.000000	0.007269	2.582539	-0.005180	-0.064237
2.100000	0.003920	4.122234	-0.004312	-0.031826
2.200000	0.004929	5.768751	0.003272	0.041765
2.300000	0.000600	12.656848	-0.007205	-0.035493
2.400000	0.003456	12.395496	-0.010539	-0.066592
2.500000	0.006257	13.374864	0.014147	-0.027863
2.600000	0.003501	17.107439	0.071294	0.220802
2.700000	-0.006081	14.923924	0.157021	0.430830
2.800000	0.002003	12.574890	0.268469	0.763579
2.900000	0.006511	7.065483	0.273404	0.775136
3.000000	0.002291	6.371034	0.286023	0.845841
3.100000	0.007482	8.829300	0.295704	0.879206
3.200000	-0.001140	11.508894	0.302523	0.877289
3.300000	-0.000842	13.845292	0.313831	0.935601
3.400000	0.006322	14.281805	0.355074	1.068541
3.500000	-0.000931	16.330798	0.454462	1.278194
3.600000	0.004916	17.809580	0.538301	1.362925
3.700000	-0.005940	18.096873	0.624371	1.378675
3.800000	0.001555	22.469503	0.691833	1.237551
3.900000	0.012746	21.629806	0.795190	1.516544
4.000000	0.012651	23.108057	0.949088	1.927072
4.100000	0.000661	28.831467	1.070746	2.257851
4.200000	0.000594	44.362400	1.086482	2.291803
4.300000	-0.002818	60.867510	1.106282	2.317322
4.400000	0.003376	80.334081	1.075826	2.115317
4.500000	0.007703	99.533532	1.093362	1.881850
4.600000	0.009430	115.846774	1.108191	1.675697
4.700000	0.008309	136.640839	1.113500	1.440995
4.800000	0.012410	153.717988	1.137036	1.310207
4.900000	0.011704	174.123676	1.150151	1.045584
5.000000	0.006071	188.352710	1.175953	0.683015
5.100000	0.006433	206.810813	1.207055	0.403998
5.200000	0.013298	225.058628	1.225023	0.406109
5.300000	0.012508	249.843604	1.261794	0.452454
5.400000	0.009980	272.965890	1.282719	0.600605
5.500000	0.018667	302.116745	1.330608	0.685630
5.600000	0.013227	328.561536	1.365648	0.758002
5.700000	0.019683	355.058270	1.399282	0.831077
5.800000	0.016517	379.408543	1.437652	0.880057
5.900000	0.020362	406.147368	1.477026	0.957785
6.000000	0.023393	435.037569	1.518163	0.996400
6.100000	0.021872	462.873044	1.552106	1.009927
6.200000	0.015356	488.918856	1.596926	1.087210
6.300000	0.034947	516.341276	1.630559	1.080712
6.400000	0.033164	545.737148	1.657099	1.092504
6.500000	0.025948	575.583794	1.709091	1.114141
6.600000	0.040940	602.709894	1.737613	1.082798
6.700000	0.040855	632.891378	1.777580	1.108709
6.800000	0.050284	667.509155	1.810532	1.091023
6.900000	0.048100	695.167837	1.840798	1.063869
7.000000	0.044922	722.957316	1.870352	1.035498
7.100000	0.058473	753.311051	1.898395	1.015154
7.200000	0.058704	778.913279	1.936782	0.988724
7.300000	0.064348	807.820620	1.965808	0.983030
7.400000	0.063402	839.750322	1.995943	0.998076
7.500000	0.062924	869.858546	2.016423	0.898382
7.600000	0.059831	901.728575	2.061126	0.947952
7.700000	0.073339	937.151054	2.099031	0.939845
7.800000	0.070213	968.958020	2.126851	0.926819
7.900000	0.082030	999.993001	2.154275	0.921658
8.000000	0.089868	1029.155731	2.179673	0.898863
8.100000	0.082245	1060.153547	2.190867	0.862170
8.200000	0.085680	1095.638696	2.218235	0.828081
8.300000	0.086525	1131.408629	2.230786	0.778889
8.400000	0.095380	1160.500149	2.266061	0.787128
8.500000	0.114026	1184.287454	2.299021	0.823606
8.600000	0.115268	1193.108696	2.336752	0.807366
8.700000	0.117174	1200.675156	2.347670	0.734011
8.800000	0.132328	1212.299317	2.365653	0.698327
8.900000	0.138589	1222.983472	2.393748	0.697209
9.000000	0.157238	1233.070385	2.401538	0.655329
9.100000	0.166728	1241.685823	2.450197	0.752019
9.200000	0.187756	1250.460252	2.504843	0.838719
9.300000	0.216011	1254.807018	2.523893	0.857666
9.400000	0.231748	1259.562068	2.536884	0.791836
9.500000	0.250068	1268.072401	2.574025	0.807974
9.600000	0.269674	1277.505151	2.611542	0.805355
9.700000	0.286271	1281.605088	2.637086	0.843130
9.800000	0.303316	1289.137111	2.656396	0.852063
9.900000	0.308024	1293.916820	2.684673	0.851737
10.000000	0.335446	1305.806069	2.704810	0.886162
10.100000	0.363145	1311.411561	2.775047	0.950168
10.200000	0.382569	1318.603278	2.790170	0.835917
10.300000	0.404423	1321.057669	2.812540	0.846989
10.400000	0.431230	1326.150532	2.856186	0.934128
10.500000	0.452378	1331.851398	2.875313	0.882493
10.600000	0.464424	1332.525359	2.916543	0.891375
10.700000	0.485381	1336.659428	2.948851	0.911003
10.800000	0.509340	1338.607127	2.980602	0.949674
10.900000	0.526487	1342.576884	3.019240	0.973535
11.000000	0.555614	1347.394544	3.053498	1.020412
11.100000	0.578516	1351.269787	3.082626	0.907441
11.200000	0.597919	1354.545041	3.114277	0.946733
11.300000	0.618270	1356.951177	3.154098	0.996750
11.400000	0.637527	1359.155333	3.182199	0.954393
11.500000	0.657658	1360.643599	3.225752	1.025385
11.600000	0.683697	1363.554328	3.254549	0.991448
11.700000	0.696809	1367.134271	3.283889	0.980312
11.800000	0.721236	1367.683547	3.309384	0.963927
11.900000	0.742060	1368.637144	3.337109	0.932003
12.000000	0.775528	1370.766284	3.378250	0.948112
12.100000	0.796485	1372.875558	3.425325	1.001649
12.200000	0.819332	1372.511982	3.478005	1.066086
12.300000	0.848019	1369.165983	3.500741	1.015483
12.400000	0.851286	1368.183769	3.528677	1.012318
12.500000	0.882149	1367.405139	3.573635	1.020279
12.600000	0.904998	1367.484152	3.608773	1.032540
12.700000	0.946672	1358.462020	3.643526	1.055004
12.800000	0.973662	1351.157386	3.706262	1.157943
12.900000	1.015744	1335.265876	3.728201	1.146187
13.000000	1.056938	1320.707389	3.778059	1.171638
13.100000	1.096154	1299.077115	3.818578	1.149407
13.200000	1.132318	1271.949669	3.868172	1.143338
13.300000	1.180054	1241.944165	3.922900	1.230395
13.400000	1.235007	1202.274236	3.962090	1.271854
13.500000	1.280050	1152.452729	3.985907	1.204450
13.600000	1.343611	1068.369164	4.043385	1.269640
13.700000	3.022868	59.081169	5.177867	4.306589
13.800000	3.083664	-4.939964	6.151773	7.157462
13.900000	3.097429	-7.438283	6.126452	7.017237
14.000000	3.102322	-4.793153	6.133825	6.897620
14.100000	3.105019	-5.280575	6.145491	6.808939
14.200000	3.102067	-4.377330	6.152802	6.684960
14.300000	3.101720	-5.265375	6.132096	6.465963
14.400000	3.109625	-6.191644	6.155510	6.418507
14.500000	3.103383	-6.272276	6.137410	6.297246
14.600000	3.102749	-4.287076	6.125787	6.098409
14.700000	3.103389	-7.385765	6.145425	3.073629
14.800000	3.111650	-4.249349	6.132396	-0.052608
14.900000	3.113203	-5.771712	6.153018	0.074952
15.000000	3.112074	-5.373479	6.150730	0.046865
15.100000	3.113623	-4.301089	6.132071	-0.037218
15.200000	3.109095	-4.230305	6.148669	-0.010211
15.300000	3.105294	-5.151186	6.144706	0.037823
15.400000	3.108204	-6.836257	6.156538	0.001909
15.500000	3.111159	-5.335047	6.145081	0.020232
15.600000	3.111266	-3.906645	6.147291	0.065744
15.700000	3.106129	-3.711384	6.141733	-0.006734
15.800000	3.103860	-6.501195	6.132418	-0.001970
15.900000	3.105927	-6.820785	6.142259	-0.031722
16.000000	3.108242	-6.791272	6.150137	-0.009160
16.100000	3.112315	-4.641365	6.159200	0.084790
16.200000	3.118561	-5.402457	6.173684	0.073352
