LabVIEW Measurement	
Writer_Version	2
Reader_Version	2
Separator	Tab
Decimal_Separator	.
Multi_Headings	No
X_Columns	One
Time_Pref	Absolute
Operator	tlstroud
Date	2022/03/22
Time	13:47:29.8032116889953613281
***End_of_Header***	
	
Notes	X values guaranteed valid only for Extensometer Displacement-mm (Mean)				
Channels	4				
Samples	1	1	1	1	
Date	2022/03/22	2022/03/22	2022/03/22	2022/03/22	
Time	13:47:29.8032116889953613281	13:47:29.8032116889953613281	13:47:29.8032116889953613281	13:47:29.8032941818237304687	
Y_Unit_Label	Volts	Volts	Volts	Volts	
X_Dimension	Time	Time	Time	Time	
X0	0.0000000000000000E+0	0.0000000000000000E+0	0.0000000000000000E+0	9.9000000000000005E-2	
Delta_X	0.100000	0.100000	0.100000	0.100000	
***End_of_Header***					
X_Value	Extensometer Displacement-mm (Mean)	Force-N (Mean)	Global Displacement-mm (Mean)	Global Displacement-mm (Mean) 1	Comment
0.000000	-0.250989	-1.196776	-0.187533	0.030309
0.100000	-0.247889	1.511798	-0.190759	0.066675
0.200000	-0.247065	-0.318117	-0.205537	-0.002410
0.300000	-0.249300	1.805900	-0.212098	-0.009581
0.400000	-0.249422	1.547310	-0.207878	-0.033069
0.500000	-0.250905	1.609340	-0.208754	-0.030585
0.600000	-0.253444	1.392133	-0.202921	-0.020093
0.700000	-0.254338	0.508495	-0.199706	-0.016422
0.800000	-0.249871	1.223927	-0.202293	0.027317
0.900000	-0.254439	1.024021	-0.218268	-0.068325
1.000000	-0.255396	-0.871198	-0.203417	-0.044207
1.100000	-0.242809	1.974334	-0.199694	-0.029649
1.200000	-0.241545	4.436852	-0.208989	-0.013308
1.300000	-0.247507	5.918548	-0.216881	-0.015112
1.400000	-0.246463	10.364131	-0.205839	0.013030
1.500000	-0.255450	10.008112	-0.190982	0.046578
1.600000	-0.244366	10.519357	-0.210032	-0.022620
1.700000	-0.255218	12.189550	-0.193712	0.021324
1.800000	-0.244463	11.357536	-0.213686	-0.036078
1.900000	-0.243445	11.302626	-0.207093	0.034498
2.000000	-0.246598	12.246851	-0.198411	0.013435
2.100000	-0.257403	10.459086	-0.193330	0.017402
2.200000	-0.248083	13.981983	-0.195718	0.038889
2.300000	-0.243116	10.797691	-0.186453	0.084290
2.400000	-0.250377	11.901621	-0.139818	0.188663
2.500000	-0.247857	15.667005	-0.030353	0.461753
2.600000	-0.254760	16.822895	0.065599	0.804525
2.700000	-0.258855	19.331480	0.161999	1.031363
2.800000	-0.256908	10.556716	0.200301	1.208237
2.900000	-0.262717	8.850534	0.206437	1.216320
3.000000	-0.258554	7.430974	0.215563	1.211537
3.100000	-0.261298	9.046115	0.230348	1.242187
3.200000	-0.248048	13.039766	0.212386	1.193367
3.300000	-0.256822	16.738675	0.253581	1.288901
3.400000	-0.253928	22.215019	0.275628	1.219622
3.500000	-0.256208	29.447663	0.276134	0.918621
3.600000	-0.259510	38.755377	0.270591	0.603833
3.700000	-0.262615	45.898511	0.293383	0.399216
3.800000	-0.257938	59.487168	0.305741	0.302350
3.900000	-0.268565	74.473289	0.314885	0.317216
4.000000	-0.265522	92.436221	0.344076	0.378176
4.100000	-0.260378	109.492205	0.365762	0.399112
4.200000	-0.259907	126.890625	0.364554	0.441321
4.300000	-0.256203	144.516848	0.437963	0.539637
4.400000	-0.251434	163.101300	0.440547	0.488837
4.500000	-0.246181	186.103074	0.458696	0.528311
4.600000	-0.244473	210.872724	0.493108	0.647700
4.700000	-0.243977	234.520169	0.502724	0.614810
4.800000	-0.250675	259.287435	0.556997	0.741713
4.900000	-0.238071	280.708817	0.575031	0.757598
5.000000	-0.239704	302.781868	0.623820	0.815754
5.100000	-0.228838	325.611222	0.634400	0.785458
5.200000	-0.233769	348.137094	0.651526	0.848296
5.300000	-0.229616	374.140557	0.677698	0.702561
5.400000	-0.229765	394.649194	0.707709	0.778796
5.500000	-0.224242	424.193696	0.743446	0.836086
5.600000	-0.223837	449.558770	0.797409	0.891933
5.700000	-0.219895	475.430527	0.825072	0.943206
5.800000	-0.221892	500.379392	0.858329	0.883990
5.900000	-0.221986	524.549325	0.869053	0.860266
6.000000	-0.221129	547.271424	0.894413	0.801476
6.100000	-0.222589	572.672220	0.911095	0.805306
6.200000	-0.209893	598.449093	0.950919	0.878012
6.300000	-0.215681	620.345148	0.974416	0.869751
6.400000	-0.203855	644.355080	1.016734	0.907368
6.500000	-0.202746	672.416560	1.025867	0.826324
6.600000	-0.206018	697.587073	1.069183	0.805224
6.700000	-0.212715	731.651437	1.091338	0.774617
6.800000	-0.200976	766.972343	1.126028	0.785092
6.900000	-0.194321	797.648133	1.162740	0.863175
7.000000	-0.201459	822.877036	1.178288	0.828047
7.100000	-0.199605	850.589647	1.199075	0.842645
7.200000	-0.190612	879.817003	1.241003	0.854779
7.300000	-0.200078	910.670824	1.288047	0.918936
7.400000	-0.188623	943.793350	1.315205	0.882256
7.500000	-0.182669	981.095553	1.346296	0.934000
7.600000	-0.182144	1020.389418	1.385045	0.921675
7.700000	-0.166843	1051.181013	1.435845	1.012571
7.800000	-0.164442	1083.238233	1.451645	0.955280
7.900000	-0.174757	1112.824447	1.479134	0.927037
8.000000	-0.173580	1144.364950	1.520704	0.998233
8.100000	-0.172365	1176.953620	1.545973	1.027510
8.200000	-0.171352	1204.980634	1.565048	0.947460
8.300000	-0.174324	1233.232302	1.598308	0.904932
8.400000	-0.169006	1261.219790	1.632857	0.927436
8.500000	-0.168058	1289.993021	1.644514	0.882931
8.600000	-0.156299	1317.825049	1.681758	0.871633
8.700000	-0.143790	1344.947187	1.713946	0.814465
8.800000	-0.147717	1359.475208	1.748742	0.873985
8.900000	-0.127841	1376.692582	1.782882	0.882865
9.000000	-0.114225	1388.757465	1.825539	0.902844
9.100000	-0.097781	1399.615260	1.859311	0.915046
9.200000	-0.080576	1399.940471	1.861549	0.865647
9.300000	-0.076092	1403.063291	1.888459	0.862478
9.400000	-0.037627	1404.697715	1.949255	0.925601
9.500000	-0.030352	1408.459416	1.974986	0.955746
9.600000	0.000309	1414.811599	2.016656	0.989866
9.700000	0.024681	1417.864086	2.046282	0.974456
9.800000	0.051928	1418.414658	2.088527	0.990900
9.900000	0.058463	1422.533454	2.136563	1.040871
10.000000	0.093029	1425.867231	2.159237	0.979813
10.100000	0.114967	1429.760650	2.184872	0.951072
10.200000	0.132191	1432.254959	2.212151	1.034894
10.300000	0.163213	1439.464326	2.232161	0.999652
10.400000	0.180163	1442.159839	2.284755	0.981045
10.500000	0.207917	1446.614635	2.326292	1.037502
10.600000	0.234936	1448.178084	2.352977	0.983341
10.700000	0.254103	1451.414250	2.360877	0.924126
10.800000	0.265822	1451.289772	2.395990	0.907614
10.900000	0.291907	1455.673627	2.424544	0.848383
11.000000	0.313061	1459.388807	2.443068	0.824597
11.100000	0.337353	1467.141101	2.503092	0.932847
11.200000	0.358653	1471.444203	2.510702	0.874826
11.300000	0.370100	1470.310000	2.525227	0.866224
11.400000	0.389409	1477.136479	2.567073	0.826037
11.500000	0.406655	1478.797349	2.595684	0.794436
11.600000	0.425783	1480.204061	2.638714	0.833362
11.700000	0.450349	1483.152184	2.672980	0.915607
11.800000	0.473553	1486.927267	2.691185	0.860933
11.900000	0.489107	1489.770928	2.746440	0.943320
12.000000	0.511584	1491.303786	2.773342	0.970448
12.100000	0.533490	1493.507219	2.812088	0.909357
12.200000	0.548362	1491.897745	2.808876	0.871999
12.300000	0.570949	1493.765655	2.848484	0.942605
12.400000	0.585566	1499.018180	2.909941	1.010348
12.500000	0.608132	1499.130113	2.944927	1.021148
12.600000	0.619591	1499.053927	2.954934	0.926938
12.700000	0.644955	1494.505488	2.996308	0.948421
12.800000	0.657958	1487.531461	3.018573	0.962433
12.900000	0.663601	1481.029963	3.057541	0.908975
13.000000	0.672514	1466.318182	3.099305	0.960031
13.100000	0.677582	1449.635811	3.146252	0.974161
13.200000	0.690830	1425.434941	3.205451	1.158683
13.300000	0.700562	1392.989203	3.224080	1.104055
13.400000	0.705783	1355.358057	3.275506	1.074412
13.500000	0.706487	1316.219383	3.323328	1.105451
13.600000	0.709718	1259.021787	3.373794	1.226101
13.700000	0.701320	1181.864040	3.420288	1.241822
13.800000	1.010775	257.256025	3.596223	1.667514
13.900000	1.150634	-4.950339	3.801069	2.181862
14.000000	1.147848	-4.469571	3.788443	2.019280
14.100000	1.152621	-4.628092	3.780893	1.871802
14.200000	1.143064	-4.212645	3.781909	1.691918
14.300000	1.144072	-3.725645	3.783433	1.644737
14.400000	1.141270	-3.192920	3.806053	1.558131
14.500000	1.143603	-5.294632	3.787744	1.363864
14.600000	1.143519	-5.697959	3.803930	1.269243
14.700000	1.147133	-5.390084	3.795938	1.107540
14.800000	1.150132	-4.192312	3.799444	0.630776
14.900000	1.146400	-5.595921	3.799343	-0.001306
15.000000	1.153737	-5.528519	3.798113	0.028133
15.100000	1.140670	-4.286202	3.791480	0.028557
15.200000	1.145855	-5.281240	3.780833	-0.002141
15.300000	1.144021	-7.180091	3.800437	0.044080
15.400000	1.140700	-5.586140	3.791159	-0.039707
15.500000	1.150397	-4.334245	3.799324	0.036727
15.600000	1.152415	-2.821975	3.790157	-0.040848
15.700000	1.139048	-4.571242	3.784843	-0.034739
15.800000	1.139483	-2.173900	3.785342	-0.034924
