LabVIEW Measurement	
Writer_Version	2
Reader_Version	2
Separator	Tab
Decimal_Separator	.
Multi_Headings	No
X_Columns	One
Time_Pref	Absolute
Operator	tlstroud
Date	2022/03/22
Time	13:40:44.2442312240600585938
***End_of_Header***	
	
Notes	X values guaranteed valid only for Extensometer Displacement-mm (Mean)				
Channels	4				
Samples	1	1	1	1	
Date	2022/03/22	2022/03/22	2022/03/22	2022/03/22	
Time	13:40:44.2442312240600585938	13:40:44.2442312240600585938	13:40:44.2442312240600585938	13:40:44.2466168403625488281	
Y_Unit_Label	Volts	Volts	Volts	Volts	
X_Dimension	Time	Time	Time	Time	
X0	0.0000000000000000E+0	0.0000000000000000E+0	0.0000000000000000E+0	9.9000000000000005E-2	
Delta_X	0.100000	0.100000	0.100000	0.100000	
***End_of_Header***					
X_Value	Extensometer Displacement-mm (Mean)	Force-N (Mean)	Global Displacement-mm (Mean)	Global Displacement-mm (Mean) 1	Comment
0.000000	-0.284297	-1.252644	-0.010675	0.005147
0.100000	-0.282060	-2.352602	-0.011769	0.031657
0.200000	-0.286990	-2.373166	-0.004826	0.024713
0.300000	-0.281544	-2.045357	-0.019784	-0.015748
0.400000	-0.291593	-0.555525	0.009848	0.066339
0.500000	-0.289879	-1.827656	-0.000805	0.038576
0.600000	-0.288816	-0.865080	-0.026201	-0.114331
0.700000	-0.286915	0.084712	-0.018379	-0.038107
0.800000	-0.279006	0.323105	-0.010458	0.020863
0.900000	-0.287533	-0.596126	-0.015403	-0.052433
1.000000	-0.286650	-0.039199	-0.006415	0.012298
1.100000	-0.286732	-0.585179	-0.011525	0.000295
1.200000	-0.281259	0.241436	-0.006950	-0.014367
1.300000	-0.288318	-0.744628	-0.011322	0.039037
1.400000	-0.273557	-0.294347	-0.008466	-0.064284
1.500000	-0.284817	-0.436339	-0.021002	-0.055344
1.600000	-0.287978	2.174597	-0.012862	0.037052
1.700000	-0.275407	-0.927699	-0.022927	-0.012061
1.800000	-0.288854	-0.816444	-0.001956	0.023899
1.900000	-0.281991	-0.250327	0.012224	0.074556
2.000000	-0.286995	3.007238	-0.016098	-0.024319
2.100000	-0.288105	3.289174	-0.000964	0.032638
2.200000	-0.282130	6.717306	-0.021957	-0.042203
2.300000	-0.288931	10.095263	0.007087	0.042138
2.400000	-0.290374	12.839510	-0.006638	0.016495
2.500000	-0.282100	18.115929	0.003818	0.066582
2.600000	-0.286437	18.603248	-0.004907	0.017868
2.700000	-0.281926	21.861904	0.052715	0.220214
2.800000	-0.275419	23.426006	0.119003	0.349652
2.900000	-0.286085	22.105911	0.187246	0.502172
3.000000	-0.288685	19.004579	0.245482	0.753067
3.100000	-0.284497	14.926041	0.248073	0.726673
3.200000	-0.288261	13.573520	0.277851	0.869524
3.300000	-0.290343	13.118181	0.279037	0.799799
3.400000	-0.287202	20.405529	0.270073	0.798000
3.500000	-0.285626	21.534595	0.285408	0.821287
3.600000	-0.278253	24.546167	0.347645	1.019177
3.700000	-0.278478	25.381115	0.395928	0.999598
3.800000	-0.277178	26.092387	0.456839	0.984868
3.900000	-0.279180	29.964716	0.528785	0.996983
4.000000	-0.291543	30.774721	0.621157	1.086104
4.100000	-0.279395	33.223056	0.725789	1.380288
4.200000	-0.283570	34.740227	0.848294	1.650541
4.300000	-0.281560	37.056871	0.953710	1.951499
4.400000	-0.285533	51.038338	0.985104	2.086372
4.500000	-0.280562	66.831652	0.993980	2.060948
4.600000	-0.281438	87.171908	0.991119	1.881049
4.700000	-0.278100	107.848709	1.001181	1.760573
4.800000	-0.282629	126.869577	1.019278	1.642499
4.900000	-0.274700	145.415954	1.002902	1.392164
5.000000	-0.278427	169.235803	1.014894	1.162644
5.100000	-0.286591	193.723301	1.037161	0.911047
5.200000	-0.281361	218.274986	1.057366	0.623162
5.300000	-0.276887	248.956876	1.116042	0.474147
5.400000	-0.273037	283.467757	1.155095	0.487787
5.500000	-0.274352	313.883693	1.196463	0.590139
5.600000	-0.275455	343.187833	1.238253	0.718281
5.700000	-0.275467	370.179583	1.262879	0.758750
5.800000	-0.259651	401.746014	1.310590	0.846875
5.900000	-0.263010	432.854973	1.334878	0.957813
6.000000	-0.259390	469.496850	1.373708	1.040811
6.100000	-0.265987	506.484078	1.430720	1.141566
6.200000	-0.259282	541.032475	1.492145	1.267349
6.300000	-0.251182	571.324442	1.529976	1.206448
6.400000	-0.243660	602.173938	1.528240	1.091239
6.500000	-0.243290	634.130885	1.583800	1.127115
6.600000	-0.233393	668.000059	1.612073	1.089734
6.700000	-0.231582	703.093149	1.657398	1.151074
6.800000	-0.241137	738.270246	1.686251	1.091350
6.900000	-0.235921	773.589474	1.720323	1.124575
7.000000	-0.233160	808.970047	1.754009	1.104392
7.100000	-0.225408	846.492548	1.793584	1.063286
7.200000	-0.218759	884.358614	1.818411	0.950112
7.300000	-0.214116	920.442288	1.861035	0.963432
7.400000	-0.220513	957.985239	1.917741	1.132296
7.500000	-0.214702	993.729832	1.945214	1.048633
7.600000	-0.209475	1029.715692	1.987784	1.091101
7.700000	-0.204468	1070.960426	2.020028	1.061943
7.800000	-0.202922	1110.266966	2.045667	1.043766
7.900000	-0.190814	1141.833069	2.099447	1.103353
8.000000	-0.197121	1174.332224	2.121954	1.074133
8.100000	-0.183831	1205.204585	2.155066	1.050769
8.200000	-0.174291	1239.094415	2.198759	1.107174
8.300000	-0.176476	1262.333267	2.243386	1.114744
8.400000	-0.152863	1277.726224	2.276492	1.043998
8.500000	-0.126941	1288.593577	2.320874	1.096572
8.600000	-0.099478	1296.436723	2.394885	1.181093
8.700000	-0.072627	1302.233455	2.418463	1.156752
8.800000	-0.057637	1313.820504	2.463063	1.218661
8.900000	-0.024323	1318.454579	2.504091	1.178627
9.000000	-0.003091	1323.539654	2.541542	1.220768
9.100000	0.021129	1328.444810	2.578780	1.235736
9.200000	0.054938	1333.089770	2.623421	1.231234
9.300000	0.083033	1342.239875	2.672355	1.251968
9.400000	0.108818	1348.069622	2.681976	1.182618
9.500000	0.141379	1351.823517	2.726104	1.176479
9.600000	0.170295	1354.144368	2.780104	1.128370
9.700000	0.188830	1357.846923	2.813527	1.147416
9.800000	0.215905	1364.029724	2.857942	1.150214
9.900000	0.235945	1369.331336	2.871985	1.074325
10.000000	0.274397	1374.147308	2.906158	1.061145
10.100000	0.298365	1377.406658	2.950727	1.079826
10.200000	0.310889	1385.789705	2.988567	1.066685
10.300000	0.356081	1391.028680	3.054367	1.108349
10.400000	0.385104	1391.308367	3.082728	1.166509
10.500000	0.401607	1393.743861	3.131892	1.185814
10.600000	0.425001	1397.568081	3.148586	1.075718
10.700000	0.458317	1401.747950	3.177824	1.058682
10.800000	0.488895	1404.027047	3.212291	1.032283
10.900000	0.501980	1407.213565	3.263252	1.133998
11.000000	0.535935	1412.541164	3.280899	1.095177
11.100000	0.550411	1417.700931	3.335287	1.121207
11.200000	0.589361	1416.404679	3.376271	1.129639
11.300000	0.610588	1417.589342	3.395999	0.999711
11.400000	0.635457	1418.821240	3.427735	1.002816
11.500000	0.656448	1421.397826	3.450725	0.929728
11.600000	0.682522	1424.859577	3.486837	0.982833
11.700000	0.703763	1428.922451	3.514122	0.984261
11.800000	0.731210	1425.725389	3.531787	0.925774
11.900000	0.740508	1421.707473	3.567245	0.890375
12.000000	0.747410	1412.441849	3.552148	0.791718
12.100000	0.760877	1403.936252	3.574488	0.700123
12.200000	0.755365	1396.586909	3.585170	0.609215
12.300000	0.759092	1391.507624	3.620766	0.654627
12.400000	0.755871	1390.343735	3.646464	0.636532
12.500000	0.757013	1387.469191	3.667460	0.633132
12.600000	0.763240	1384.861625	3.681014	0.567478
12.700000	0.759415	1381.643222	3.676027	0.471069
12.800000	0.755684	1382.835859	3.706398	0.515682
12.900000	0.759827	1381.789697	3.682190	0.341071
13.000000	0.757596	1379.834301	3.693912	0.402543
13.100000	0.762830	1379.225640	3.699665	0.368499
13.200000	0.789857	1377.383919	3.692977	0.317609
13.300000	0.783007	1376.727496	3.697942	0.227660
13.400000	0.769853	1375.242018	3.718584	0.213627
13.500000	0.761437	1374.322216	3.697541	0.090489
13.600000	0.787927	1376.394474	3.698067	0.050946
13.700000	0.711784	1374.155133	3.687873	0.031919
13.800000	0.683435	1373.300423	3.681907	-0.067699
13.900000	0.712788	1373.744476	3.694612	0.029855
14.000000	0.495123	1374.951129	3.695566	0.011911
14.100000	0.328946	1372.635801	3.694419	-0.014954
14.200000	0.298342	1373.034612	3.699776	0.017609
14.300000	-0.011748	1371.660521	3.692638	-0.013528
14.400000	-0.549005	1370.298929	3.695762	-0.066889
14.500000	-0.773529	1369.209391	3.698013	-0.001172
14.600000	-1.033124	1365.874085	3.710216	0.032663
14.700000	-0.457938	1368.821146	3.700369	0.037839
14.800000	0.181217	1367.732003	3.710235	0.082998
14.900000	0.298271	1367.174840	3.692692	-0.007452
15.000000	0.631413	1369.150203	3.698759	0.012692
15.100000	0.534368	1366.008786	3.690781	-0.008162
15.200000	0.583121	1367.475463	3.693010	-0.021028
15.300000	1.121824	1366.963315	3.681973	-0.033979
15.400000	1.390530	1368.868439	3.689651	-0.017157
15.500000	1.139151	1366.655606	3.711297	0.039661
15.600000	0.983531	1364.626327	3.699625	-0.029140
15.700000	1.014117	1365.322635	3.702333	0.004956
15.800000	0.906124	1367.219882	3.690078	-0.060837
15.900000	0.949605	1388.711657	3.708395	0.044191
16.000000	0.898667	1426.849621	3.690470	-0.021949
16.100000	0.888376	1431.745578	3.685864	-0.019300
16.200000	0.888969	1435.042837	3.702877	0.029701
16.300000	0.894798	1436.023876	3.705455	0.070554
16.400000	0.897687	1435.395213	3.746361	0.159188
16.500000	0.893620	1435.141657	3.785782	0.215163
16.600000	0.892858	1433.204243	3.794100	0.273168
16.700000	0.899830	1437.227509	3.819362	0.337775
16.800000	0.888744	1439.325402	3.840768	0.437260
16.900000	0.898454	1439.339093	3.856581	0.434942
17.000000	0.892542	1438.952058	3.906698	0.620245
17.100000	0.890151	1440.461429	3.972636	0.828461
17.200000	0.895708	1438.476875	3.982034	0.815586
17.300000	0.894289	1435.718862	4.024852	0.922540
17.400000	0.892355	1435.073554	4.054317	0.899316
17.500000	0.897231	1434.315760	4.099997	0.913831
17.600000	0.889876	1427.374240	4.109158	0.914254
17.700000	0.897627	1421.453315	4.174081	1.035103
17.800000	0.894657	1411.054089	4.203507	1.051830
17.900000	0.886113	1399.179342	4.248077	1.139003
18.000000	0.888551	1382.464974	4.291155	1.113743
18.100000	0.896062	1362.646235	4.351466	1.107153
18.200000	0.898776	1343.415829	4.383877	1.164309
18.300000	0.896893	1315.015658	4.421424	1.159312
18.400000	0.890422	1276.822302	4.485621	1.254778
18.500000	0.882874	1235.373067	4.530155	1.251060
18.600000	0.894044	1182.137133	4.590442	1.400727
18.700000	0.892435	1088.557956	4.616186	1.284514
18.800000	0.890606	73.917024	4.723239	1.508102
18.900000	0.879108	3.386546	4.799028	1.605462
19.000000	0.874214	0.749749	4.788763	1.455682
19.100000	0.868413	-0.789845	4.789086	1.278624
19.200000	0.872336	2.158675	4.798890	1.210786
19.300000	0.874939	-0.026974	4.807561	1.126772
19.400000	0.880708	-0.279144	4.789843	0.893385
19.500000	0.878322	1.812840	4.798965	0.784017
19.600000	0.885448	0.842125	4.803533	0.629588
19.700000	0.878215	-0.935222	4.780210	0.481279
19.800000	0.880127	0.167895	4.786168	0.196883
19.900000	0.871794	1.056862	4.799314	-0.000265
20.000000	0.864997	0.719266	4.798467	0.032120
20.100000	0.881468	0.401805	4.796796	0.022417
20.200000	0.874669	0.513662	4.783476	-0.034860
20.300000	0.873776	0.648619	4.278517	-1.477516
20.400000	0.870628	2.544887	3.947143	-2.444603
20.500000	0.877973	-0.646017	3.725751	-3.089254
20.600000	0.879632	0.757555	3.568777	-3.589201
20.700000	0.879600	-0.112428	2.987631	-5.140749
20.800000	0.889103	-1.060972	2.639089	-6.243609
20.900000	0.873959	0.513083	2.898776	-5.571435
21.000000	0.869628	-1.851499	2.977702	-5.273176
21.100000	0.871471	1.276519	2.937807	-5.420981
