LabVIEW Measurement	
Writer_Version	2
Reader_Version	2
Separator	Tab
Decimal_Separator	.
Multi_Headings	No
X_Columns	One
Time_Pref	Absolute
Operator	stocknot
Date	2022/03/22
Time	13:22:28.2003068923950195313
***End_of_Header***	
	
Notes	X values guaranteed valid only for Extensometer Displacement-mm (Mean)				
Channels	4				
Samples	1	1	1	1	
Date	2022/03/22	2022/03/22	2022/03/22	2022/03/22	
Time	13:22:28.2003068923950195313	13:22:28.2003068923950195313	13:22:28.2003068923950195313	13:22:28.2014112472534179688	
Y_Unit_Label	Volts	Volts	Volts	Volts	
X_Dimension	Time	Time	Time	Time	
X0	0.0000000000000000E+0	0.0000000000000000E+0	0.0000000000000000E+0	9.9000000000000005E-2	
Delta_X	0.100000	0.100000	0.100000	0.100000	
***End_of_Header***					
X_Value	Extensometer Displacement-mm (Mean)	Force-N (Mean)	Global Displacement-mm (Mean)	Global Displacement-mm (Mean) 1	Comment
0.000000	-0.011570	-1.420882	0.004426	0.072498
0.100000	-0.008026	-0.658322	-0.010288	-0.056354
0.200000	-0.003452	-2.477983	0.003094	-0.094441
0.300000	0.001837	0.433456	-0.000811	-0.012495
0.400000	-0.010268	-1.667476	0.000498	0.024591
0.500000	-0.003526	-0.001043	2.239433E-5	0.055442
0.600000	-0.004463	0.879312	0.016944	0.111930
0.700000	0.007180	-0.891559	-0.012733	-0.041203
0.800000	-0.002457	1.733366	0.006595	-0.039104
0.900000	-0.001694	2.383810	0.005761	-0.011510
1.000000	0.003468	1.624361	0.023954	0.084642
1.100000	-0.002507	-2.201669	0.000126	0.049146
1.200000	0.001356	0.826058	0.003673	0.007546
1.300000	-0.004214	7.642056	-0.007634	-0.029436
1.400000	0.000682	13.691248	-0.004210	-0.019742
1.500000	0.005213	25.772645	0.001204	-0.004460
1.600000	0.005826	38.460859	0.003801	-0.062109
1.700000	0.013295	38.547926	0.043294	0.243352
1.800000	0.022378	39.882336	0.059518	0.231765
1.900000	0.032985	41.641142	0.063814	0.257534
2.000000	0.034357	43.051291	0.101293	0.334256
2.100000	0.056435	45.257387	0.107174	0.460525
2.200000	0.057244	48.428474	0.124079	0.528625
2.300000	0.071112	49.539336	0.121549	0.561143
2.400000	0.071896	53.167416	0.168515	0.755157
2.500000	0.080615	52.838683	0.169151	0.735917
2.600000	0.089410	56.629045	0.183952	0.790151
2.700000	0.096349	57.168166	0.209784	0.739912
2.800000	0.092715	59.016215	0.219410	0.695194
2.900000	0.102811	64.130382	0.237226	0.759460
3.000000	0.105858	66.141479	0.261121	0.707548
3.100000	0.119310	67.660809	0.271603	0.719891
3.200000	0.126422	69.165300	0.286335	0.708910
3.300000	0.129827	68.743021	0.298475	0.777922
3.400000	0.141443	74.359528	0.324854	0.688932
3.500000	0.141022	78.388145	0.330245	0.700843
3.600000	0.159174	80.321525	0.350100	0.732127
3.700000	0.172785	83.438650	0.375142	0.719318
3.800000	0.172290	84.636536	0.413332	0.857558
3.900000	0.184903	86.812563	0.435651	0.868670
4.000000	0.191077	89.477326	0.437877	0.771156
4.100000	0.201335	88.823265	0.485152	0.937820
4.200000	0.206597	92.865597	0.485248	0.874002
4.300000	0.217306	93.539274	0.515121	0.945014
4.400000	0.220497	94.829739	0.525714	0.887504
4.500000	0.227907	97.353340	0.563633	1.019567
4.600000	0.242710	99.511579	0.565047	0.945399
4.700000	0.245364	101.161068	0.568280	0.853028
4.800000	0.259917	105.225648	0.611269	0.862717
4.900000	0.255656	105.440483	0.607155	0.754353
5.000000	0.267129	106.632429	0.600534	0.724333
5.100000	0.280591	107.006142	0.621524	0.589837
5.200000	0.278811	109.823584	0.658105	0.757398
5.300000	0.283567	112.599645	0.670260	0.689657
5.400000	0.289611	116.543555	0.687890	0.699729
5.500000	0.287956	117.294987	0.713014	0.666617
5.600000	0.307797	117.897780	0.717546	0.666849
5.700000	0.313196	121.448290	0.741098	0.756702
5.800000	0.332559	123.988665	0.752086	0.621632
5.900000	0.343018	125.329516	0.776228	0.732424
6.000000	0.351444	127.221688	0.807760	0.899939
6.100000	0.345799	130.757984	0.837664	0.951425
6.200000	0.362896	131.948380	0.855471	0.875810
6.300000	0.376703	133.303929	0.865919	0.853360
6.400000	0.379820	137.149405	0.885491	0.873502
6.500000	0.388568	139.626719	0.897726	0.807218
6.600000	0.406020	140.911202	0.914974	0.861413
6.700000	0.410058	143.051431	0.931090	0.831062
6.800000	0.414928	146.441688	0.968967	0.949239
6.900000	0.432446	149.629937	0.985502	0.924342
7.000000	0.449821	149.827973	1.009582	0.891761
7.100000	0.446622	150.223686	1.023680	0.814405
7.200000	0.459012	153.690649	1.054721	0.870387
7.300000	0.473363	158.579541	1.070909	0.897731
7.400000	0.490581	159.737413	1.091958	0.901143
7.500000	0.493274	163.858449	1.102689	0.902622
7.600000	0.510082	166.227857	1.142018	0.999001
7.700000	0.525362	169.669268	1.156770	0.990533
7.800000	0.543602	171.808617	1.183031	0.938864
7.900000	0.546568	173.012062	1.208588	0.979357
8.000000	0.565796	173.314065	1.238672	1.003329
8.100000	0.566513	177.302286	1.260582	1.046497
8.200000	0.584854	175.984177	1.250763	0.858340
8.300000	0.587416	178.213110	1.271756	0.880850
8.400000	0.597322	182.228915	1.289564	0.864118
8.500000	0.607466	182.461353	1.324115	0.971662
8.600000	0.615277	188.084134	1.344476	0.889294
8.700000	0.637393	189.066688	1.351524	0.851549
8.800000	0.642234	189.826083	1.405817	0.985751
8.900000	0.658078	189.866927	1.425966	0.944872
9.000000	0.662872	193.921935	1.431806	0.852398
9.100000	0.683854	199.107769	1.457837	0.861751
9.200000	0.686648	199.011957	1.479112	0.997617
9.300000	0.698614	200.611020	1.524853	1.109070
9.400000	0.715216	203.848402	1.518529	1.010865
9.500000	0.733424	206.901641	1.566496	1.059318
9.600000	0.741627	209.241275	1.593420	1.085144
9.700000	0.751110	213.514199	1.645307	1.290905
9.800000	0.778302	213.019523	1.644473	1.052622
9.900000	0.786598	213.209744	1.670617	1.076161
10.000000	0.791375	213.494885	1.675220	1.061234
10.100000	0.806531	218.967783	1.704676	1.080491
10.200000	0.813150	219.310758	1.726648	1.092735
10.300000	0.829029	220.920923	1.744371	0.969489
10.400000	0.830432	222.061974	1.764094	1.076492
10.500000	0.851832	224.437681	1.789005	0.972743
10.600000	0.859810	228.425925	1.806520	0.945075
10.700000	0.873503	230.846855	1.829954	0.805880
10.800000	0.883339	232.911402	1.842618	0.867433
10.900000	0.892709	235.274928	1.871214	0.877817
11.000000	0.903569	236.156949	1.896448	0.972741
11.100000	0.921371	236.748942	1.919305	0.943630
11.200000	0.937597	237.405819	1.944571	0.954636
11.300000	0.942293	237.163419	1.966712	0.978202
11.400000	0.954279	241.075564	1.976156	0.923248
11.500000	0.961905	243.481138	2.022201	1.029055
11.600000	0.982083	248.810497	2.021398	0.940676
11.700000	0.989464	247.416628	2.046384	0.956156
11.800000	1.000205	249.828331	2.075315	1.000875
11.900000	1.015416	251.697667	2.115022	1.083352
12.000000	1.034994	252.237165	2.130676	1.029507
12.100000	1.050856	253.664048	2.144541	0.986826
12.200000	1.058587	254.707374	2.159832	0.945406
12.300000	1.059174	256.469326	2.183107	0.939794
12.400000	1.073819	259.278522	2.218827	1.067024
12.500000	1.091115	263.683425	2.248383	0.988920
12.600000	1.105919	263.739877	2.271472	1.100563
12.700000	1.121820	265.357891	2.306829	1.133274
12.800000	1.130366	265.508893	2.304103	1.028668
12.900000	1.145134	267.899371	2.322670	0.906071
13.000000	1.151364	271.269443	2.338786	0.903658
13.100000	1.172680	270.882232	2.381349	1.038242
13.200000	1.177682	271.782329	2.420752	1.146773
13.300000	1.186775	272.324604	2.415510	1.022702
13.400000	1.205419	276.617116	2.430859	0.938781
13.500000	1.208345	277.280806	2.466494	0.954159
13.600000	1.230602	281.918300	2.486941	0.947916
13.700000	1.241368	284.320105	2.505148	0.873214
13.800000	1.262114	283.706406	2.554580	1.086258
13.900000	1.279569	284.055568	2.568042	1.070291
14.000000	1.294107	279.820454	2.591624	1.123158
14.100000	1.303156	267.443648	2.596072	0.942540
14.200000	1.298946	260.969749	2.639039	0.949394
14.300000	1.301052	259.129521	2.669630	1.118499
14.400000	1.306714	255.565340	2.656064	0.983211
14.500000	1.295590	257.383965	2.656055	0.839681
14.600000	1.296304	256.503963	2.640709	0.678543
14.700000	1.298241	251.629194	2.650422	0.646763
14.800000	1.290990	252.533103	2.668908	0.503026
14.900000	1.304509	252.548376	2.657286	0.402317
15.000000	1.309910	251.464013	2.663447	0.299501
15.100000	1.295244	249.512713	2.675107	0.357974
15.200000	1.296322	249.969241	2.657509	0.093311
15.300000	1.301484	249.635689	2.663114	-0.032133
15.400000	1.299047	248.546958	2.670275	0.067974
15.500000	1.303683	251.239455	2.662159	0.032178
15.600000	1.299656	248.039236	2.656888	0.063145
15.700000	1.306176	248.626182	2.665696	0.065028
15.800000	1.296465	245.551792	2.676648	0.037625
15.900000	1.320171	247.754342	2.660934	0.016665
16.000000	1.316434	246.333983	2.652469	-0.043680
16.100000	1.307358	245.323530	2.662851	-0.063194
16.200000	1.308828	246.787795	2.662687	0.023027
16.300000	1.305957	244.503508	2.667322	0.022452
16.400000	1.299224	246.532988	2.660692	-0.045697
16.500000	1.321485	242.726150	2.663585	0.009454
16.600000	1.325325	245.207618	2.658215	0.003823
16.700000	1.339068	243.090316	2.636541	-0.129544
16.800000	1.336104	246.192059	2.659564	-0.074925
16.900000	1.352289	243.139575	2.667964	0.029460
17.000000	1.352816	243.472707	2.671113	0.079271
17.100000	1.340226	244.903517	2.670163	0.042767
17.200000	1.318589	244.684466	2.662197	-0.004747
17.300000	1.270704	243.444321	2.660043	-0.033542
17.400000	1.057087	243.133805	2.665948	0.022705
17.500000	-0.600276	242.645518	2.658618	-0.022521
17.600000	-1.486646	242.036783	2.654813	-0.015939
17.700000	-1.400450	244.750698	2.669635	0.153703
17.800000	-1.556817	246.943037	2.654312	-0.030718
17.900000	-1.531744	242.999639	2.673626	0.024416
18.000000	-1.642636	246.029574	2.666051	-0.015855
18.100000	-1.882305	244.452333	2.672637	0.003774
18.200000	-3.291937	243.059057	2.677542	0.069563
18.300000	-4.120862	240.719202	2.654225	-0.028916
18.400000	-4.278437	240.819625	2.662657	-0.014978
18.500000	-4.472156	239.574390	2.660029	0.007076
18.600000	-4.658695	240.478310	2.656062	0.010363
18.700000	-4.829049	243.507762	2.655257	-0.070719
18.800000	-4.933348	244.346357	2.658591	0.025629
18.900000	-5.074318	241.852298	2.654929	-0.080311
19.000000	-4.869589	241.500687	2.648655	-0.077783
19.100000	-4.436852	241.718662	2.663214	-0.039420
19.200000	-3.828504	242.644563	2.662229	-0.070041
19.300000	-3.388569	240.198958	2.662597	0.040066
19.400000	-2.230408	240.448919	2.663419	0.000618
19.500000	-0.991296	241.332137	2.660701	0.000930
19.600000	-0.298687	241.833022	2.654180	-0.015875
19.700000	-0.416101	240.656033	2.682094	0.124032
19.800000	-1.692245	241.397896	2.667263	0.032053
19.900000	-2.302710	243.192726	2.665621	0.052027
20.000000	-2.039256	240.539744	2.676781	0.121333
20.100000	-2.850975	240.987367	2.671040	0.037936
20.200000	-3.291205	241.138589	2.664245	0.008326
20.300000	-3.246909	240.582753	2.674332	0.049833
20.400000	-2.769026	240.261943	2.667386	0.024515
20.500000	-2.105693	239.949175	2.678647	0.069377
20.600000	-1.410257	240.279434	2.662535	0.049168
20.700000	-0.993572	239.784138	2.649447	-0.151611
20.800000	-0.457910	239.793513	2.681267	0.064241
20.900000	-0.182288	240.687576	2.681812	0.066512
21.000000	-0.440301	239.354246	2.685311	0.037880
21.100000	-0.353891	239.674587	2.673566	0.013523
21.200000	-0.348006	238.993673	2.671443	0.031604
21.300000	-0.342691	240.949427	2.655208	-0.085809
21.400000	-0.342787	239.347851	2.670839	0.015132
21.500000	-0.341070	238.698396	2.671679	-0.025964
21.600000	-0.359367	241.038686	2.654058	-0.043487
21.700000	-0.349332	241.809084	2.656949	0.038051
21.800000	-0.344097	238.642631	2.668773	-0.047555
21.900000	-0.348017	238.659429	2.669614	-0.053941
22.000000	-0.355403	239.562703	2.657177	-0.121286
22.100000	-0.350327	240.107011	2.670274	-0.024770
22.200000	-0.346827	237.718705	2.659383	-0.054265
22.300000	-0.353489	241.277664	2.655424	0.006817
22.400000	-0.350157	238.745980	2.643178	-0.123551
22.500000	-0.342617	240.541225	2.652623	-0.083014
22.600000	-0.349843	238.761776	2.655658	0.008053
22.700000	-0.346929	238.709767	2.664479	0.030613
22.800000	-0.359717	238.730453	2.656870	-0.059690
22.900000	-0.355200	241.819959	2.667220	-0.007616
23.000000	-0.352537	239.339729	2.681528	0.106208
23.100000	-0.345937	241.212975	2.687347	0.084878
23.200000	-0.352379	237.879437	2.667029	0.029289
23.300000	-0.356305	239.775187	2.674482	0.083464
23.400000	-0.347935	238.845310	2.653019	0.038889
23.500000	-0.350552	239.506334	2.649325	-0.013457
23.600000	-0.353536	239.118102	2.655409	-0.002720
23.700000	-0.356353	240.557438	2.653166	-0.048304
23.800000	-0.349799	242.226184	2.662539	0.030302
23.900000	-0.343980	253.228536	2.681846	0.065254
24.000000	-0.353418	274.714542	2.669626	-0.059667
24.100000	-0.349840	288.978811	2.673303	-0.063453
24.200000	-0.357209	296.848223	2.660593	-0.021624
24.300000	-0.356927	309.982702	2.693120	0.070901
24.400000	-0.357300	315.628664	2.715296	0.277266
24.500000	-0.345142	318.917123	2.733372	0.365018
24.600000	-0.352612	310.059624	2.757760	0.441475
24.700000	-0.352620	308.441944	2.778423	0.542449
24.800000	-0.355949	311.154141	2.830525	0.734879
24.900000	-0.357936	308.655210	2.862679	0.787388
25.000000	-0.347881	305.697689	2.899253	1.004198
25.100000	-0.345885	305.172809	2.909129	1.026673
25.200000	-0.356426	302.163529	2.936144	1.205080
25.300000	-0.353272	303.565587	2.969627	1.220164
25.400000	-0.349482	305.409711	2.978350	1.148716
25.500000	-0.355747	307.035190	2.994054	1.153377
25.600000	-0.349328	308.000191	3.020664	1.144196
25.700000	-0.352699	309.500896	3.032899	1.126842
25.800000	-0.348907	311.842115	3.084646	1.102238
25.900000	-0.348478	315.645281	3.131688	1.183854
26.000000	-0.350071	316.557386	3.163129	1.164945
26.100000	-0.352702	316.182174	3.161155	1.107301
26.200000	-0.347945	320.037711	3.209331	1.185136
26.300000	-0.351945	322.548665	3.243311	1.208075
26.400000	-0.351622	323.458190	3.264561	1.258957
26.500000	-0.348309	326.017657	3.271248	1.206988
26.600000	-0.348848	325.116779	3.303862	1.247960
26.700000	-0.350136	331.240685	3.333601	1.318335
26.800000	-0.349408	334.298520	3.361012	1.217994
26.900000	-0.352663	332.621793	3.401438	1.184028
27.000000	-0.352103	332.531212	3.440220	1.206801
27.100000	-0.354395	334.327192	3.491020	1.449168
27.200000	-0.351316	331.780817	3.530677	1.410785
27.300000	-0.353641	336.949213	3.566000	1.416198
27.400000	-0.360247	337.052194	3.569838	1.331637
27.500000	-0.352541	338.983633	3.625162	1.553258
27.600000	-0.339723	340.906368	3.628536	1.434405
27.700000	-0.350200	343.828387	3.639780	1.337247
27.800000	-0.347809	346.090483	3.679006	1.396738
27.900000	-0.347221	347.797440	3.723946	1.416231
28.000000	-0.351877	346.416020	3.741043	1.323436
28.100000	-0.349777	350.899289	3.773063	1.224741
28.200000	-0.351848	351.457924	3.816361	1.269178
28.300000	-0.358385	350.584513	3.849249	1.228613
28.400000	-0.358624	353.769106	3.885641	1.394429
28.500000	-0.352058	355.757867	3.904077	1.224086
28.600000	-0.347773	356.939568	3.936508	1.338967
28.700000	-0.356660	358.337032	3.998593	1.576906
28.800000	-0.346587	360.833525	4.038783	1.578056
28.900000	-0.344966	359.135168	4.081659	1.572052
29.000000	-0.352095	360.135601	4.098492	1.575249
29.100000	-0.352243	362.397516	4.113427	1.489754
29.200000	-0.356634	363.036161	4.167178	1.532135
29.300000	-0.344627	364.543747	4.181975	1.473029
29.400000	-0.351141	366.210342	4.191922	1.336953
29.500000	-0.348986	367.725977	4.244057	1.491102
29.600000	-0.350381	369.568479	4.296867	1.580620
29.700000	-0.352417	369.376787	4.315945	1.388094
29.800000	-0.353957	365.527663	4.361386	1.424810
29.900000	-0.347214	367.865732	4.360172	1.222021
30.000000	-0.346006	373.498418	4.377776	1.224500
30.100000	-0.344024	375.863497	4.396649	1.246643
30.200000	-0.358958	376.115054	4.468742	1.323650
30.300000	-0.349198	375.207568	4.475753	1.276640
30.400000	-0.359031	373.964679	4.552885	1.587702
30.500000	-0.352919	373.267319	4.580878	1.479830
30.600000	-0.354022	377.486548	4.608666	1.371197
30.700000	-0.357191	379.315270	4.624335	1.359534
30.800000	-0.358553	382.953821	4.681209	1.395724
30.900000	-0.356296	380.969856	4.710988	1.536168
31.000000	-0.349797	382.090528	4.733798	1.553123
31.100000	-0.344938	380.843193	4.772664	1.658228
31.200000	-0.347804	382.278349	4.801354	1.460945
31.300000	-0.352859	383.132942	4.817019	1.507299
31.400000	-0.348566	384.404926	4.845694	1.277692
31.500000	-0.363762	388.469605	4.891462	1.362654
31.600000	-0.340802	385.493340	4.939235	1.450575
31.700000	-0.354171	386.420177	4.959528	1.471077
31.800000	-0.361328	386.465070	5.010311	1.445964
31.900000	-0.352916	386.275352	5.003285	1.286876
32.000000	-0.350006	390.381114	5.036792	1.330649
32.100000	-0.347971	388.360195	5.057897	1.248562
32.200000	-0.358892	392.681972	5.096138	1.291217
32.300000	-0.342662	391.741628	5.139502	1.408439
32.400000	-0.345651	393.061296	5.160230	1.386304
32.500000	-0.352717	393.327492	5.192465	1.325507
32.600000	-0.353840	398.468868	5.219681	1.231652
32.700000	-0.348058	396.853752	5.250419	1.270412
32.800000	-0.360221	398.673604	5.317643	1.344804
32.900000	-0.350672	397.687470	5.345158	1.496020
33.000000	-0.346708	393.831043	5.376873	1.490875
33.100000	-0.352787	395.618411	5.410318	1.549912
33.200000	-0.359121	395.526705	5.432938	1.480906
33.300000	-0.350571	399.507920	5.457793	1.394280
33.400000	-0.354638	402.972310	5.493008	1.461000
33.500000	-0.352867	401.643474	5.541179	1.522915
33.600000	-0.349600	400.601319	5.578821	1.579791
33.700000	-0.344645	403.938015	5.602657	1.535163
33.800000	-0.346710	404.147178	5.652383	1.482293
33.900000	-0.356508	402.258198	5.667896	1.417251
34.000000	-0.352703	401.272895	5.719766	1.501608
34.100000	-0.349184	404.224082	5.716700	1.345532
34.200000	-0.357649	406.658391	5.749080	1.386623
34.300000	-0.360099	407.955301	5.757014	1.319678
34.400000	-0.354011	409.511567	5.807225	1.380018
34.500000	-0.351704	407.790512	5.862170	1.410373
34.600000	-0.352507	405.715891	5.884330	1.332822
34.700000	-0.354417	410.444911	5.924965	1.424827
34.800000	-0.339473	410.709550	5.959617	1.340545
34.900000	-0.354767	409.146732	6.011987	1.511063
35.000000	-0.353934	409.825237	6.028948	1.356418
35.100000	-0.353238	409.309458	6.055914	1.483386
35.200000	-0.357500	410.961621	6.086297	1.482134
35.300000	-0.349022	413.788770	6.118622	1.587530
35.400000	-0.354800	414.258465	6.172980	1.599790
35.500000	-0.355515	410.748322	6.185243	1.415824
35.600000	-0.354074	413.974814	6.252629	1.610058
35.700000	-0.355917	415.688326	6.305069	1.675637
35.800000	-0.353794	411.819477	6.337300	1.651678
35.900000	-0.352671	411.709244	6.351949	1.495768
36.000000	-0.348326	416.758928	6.379353	1.538859
36.100000	-0.356131	415.791857	6.402614	1.513323
36.200000	-0.354266	416.966705	6.462401	1.654726
36.300000	-0.352310	417.221881	6.460381	1.491329
36.400000	-0.360242	415.490322	6.534829	1.596985
36.500000	-0.350704	417.754720	6.566474	1.676358
36.600000	-0.345817	419.209829	6.597956	1.521440
36.700000	-0.349953	415.911014	6.656073	1.530761
36.800000	-0.351580	417.563072	6.704045	1.619203
36.900000	-0.346409	415.090536	6.721213	1.605084
37.000000	-0.353594	419.138256	6.764812	1.694370
37.100000	-0.353102	417.256198	6.787683	1.688601
37.200000	-0.356373	419.096738	6.814643	1.547625
37.300000	-0.352709	417.004063	6.852480	1.722537
37.400000	-0.350742	417.320079	6.876595	1.496760
37.500000	-0.347392	420.498200	6.915272	1.516036
37.600000	-0.344617	420.447322	6.964926	1.631691
37.700000	-0.354104	419.909470	6.985421	1.446262
37.800000	-0.349790	414.800723	7.017942	1.379455
37.900000	-0.345999	417.442294	7.021409	1.321613
38.000000	-0.356518	420.688378	7.083076	1.390654
38.100000	-0.343313	421.447811	7.103132	1.390329
38.200000	-0.358714	420.405112	7.143125	1.434897
38.300000	-0.353026	419.462229	7.155559	1.335471
38.400000	-0.356739	418.468797	7.198305	1.406906
38.500000	-0.346953	422.450671	7.236167	1.414363
38.600000	-0.358968	418.921206	7.282372	1.382545
38.700000	-0.354207	421.631174	7.319158	1.464389
38.800000	-0.351918	418.385796	7.331753	1.372410
38.900000	-0.356616	417.784985	7.394917	1.638497
39.000000	-0.355499	418.608889	7.410757	1.444104
39.100000	-0.353667	419.042114	7.434045	1.452087
39.200000	-0.348776	416.183568	7.475332	1.455954
39.300000	-0.352167	412.861302	7.488225	1.457070
39.400000	-0.341916	406.702775	7.531799	1.468283
39.500000	-0.354058	401.143212	7.593157	1.566944
39.600000	-0.352767	393.913060	7.656156	1.634657
39.700000	-0.348145	382.309871	7.675098	1.564647
39.800000	-0.353896	373.768563	7.699846	1.609594
39.900000	-0.361002	359.425783	7.744112	1.532278
40.000000	-0.351359	342.008483	7.770206	1.581438
40.100000	-0.354810	-92.399500	7.718482	1.264774
40.200000	-0.358245	-505.031226	7.545334	0.335136
40.300000	-0.358566	-507.012898	7.549762	0.265048
40.400000	-0.353186	-506.557925	7.643419	0.486168
40.500000	-0.354991	-507.396069	7.685357	0.407522
40.600000	-0.363732	-507.435332	7.724399	0.309214
40.700000	-0.351673	-509.091244	7.750604	0.328755
40.800000	-0.355510	-506.244897	7.778081	0.351273
40.900000	-0.356227	-507.663008	7.757604	0.068399
41.000000	-0.354556	-510.743659	7.762128	-0.038846
41.100000	-0.359998	-509.796346	7.753338	0.132668
41.200000	-0.348470	-508.916270	7.761206	0.923096
41.300000	-0.351204	-510.450632	7.745557	0.866460
41.400000	-0.356119	-507.281895	7.770312	0.576112
41.500000	-0.361610	-506.481807	7.748964	0.280067
